TimeStamp,Delta_TP9,Delta_AF7,Delta_AF8,Delta_TP10,Theta_TP9,Theta_AF7,Theta_AF8,Theta_TP10,Alpha_TP9,Alpha_AF7,Alpha_AF8,Alpha_TP10,Beta_TP9,Beta_AF7,Beta_AF8,Beta_TP10,Gamma_TP9,Gamma_AF7,Gamma_AF8,Gamma_TP10,RAW_TP9,RAW_AF7,RAW_AF8,RAW_TP10,AUX_RIGHT,Accelerometer_X,Accelerometer_Y,Accelerometer_Z,Gyro_X,Gyro_Y,Gyro_Z,HeadBandOn,HSI_TP9,HSI_AF7,HSI_AF8,HSI_TP10,Battery,Elements
2020-05-06 22:42:40.757,-0.169642611180185,-0.4628881078511866,-0.8430084167270258,-0.3758034435560142,0.1354122866217591,-0.018807704360317482,-0.3854288164136935,0.005506856714757993,0.26770395981754297,0.2902940761521831,-0.1521855831118125,0.29931597870548105,0.2570932833655917,0.5973533995930922,0.2865845067599265,0.4543646902385682,-0.009594172440568371,0.2783885492261063,0.03267047194631423,0.2313721177871598,826.4102564102565,813.1135531135533,810.2930402930403,812.3076923076924,802.2344322344322,0.019897,0.115845,1.001282,2.407532,-2.7215580000000004,-2.6094060000000003,1.0,1.0,1.0,1.0,1.0,65.0,
2020-05-06 22:42:40.800,-0.169642611180185,-0.4628881078511866,-0.8430084167270258,-0.3758034435560142,0.1354122866217591,-0.018807704360317482,-0.3854288164136935,0.005506856714757993,0.26770395981754297,0.2902940761521831,-0.1521855831118125,0.29931597870548105,0.2570932833655917,0.5973533995930922,0.2865845067599265,0.4543646902385682,-0.009594172440568371,0.2783885492261063,0.03267047194631423,0.2313721177871598,812.7106227106227,803.8461538461539,801.025641025641,802.6373626373628,647.1062271062273,0.017334,0.11602799999999999,0.999756,2.557068,-2.960815,-1.958923,1.0,1.0,1.0,1.0,1.0,65.0,
2020-05-06 22:42:40.800,-0.169642611180185,-0.4628881078511866,-0.8430084167270258,-0.3758034435560142,0.1354122866217591,-0.018807704360317482,-0.3854288164136935,0.005506856714757993,0.26770395981754297,0.2902940761521831,-0.1521855831118125,0.29931597870548105,0.2570932833655917,0.5973533995930922,0.2865845067599265,0.4543646902385682,-0.009594172440568371,0.2783885492261063,0.03267047194631423,0.2313721177871598,790.952380952381,805.8608058608058,792.1611721611722,798.6080586080586,621.3186813186812,0.017334,0.11602799999999999,0.999756,2.557068,-2.960815,-1.958923,1.0,1.0,1.0,1.0,1.0,65.0,
2020-05-06 22:42:40.801,-0.169642611180185,-0.4628881078511866,-0.8430084167270258,-0.3758034435560142,0.1354122866217591,-0.018807704360317482,-0.3854288164136935,0.005506856714757993,0.26770395981754297,0.2902940761521831,-0.1521855831118125,0.29931597870548105,0.2570932833655917,0.5973533995930922,0.2865845067599265,0.4543646902385682,-0.009594172440568371,0.2783885492261063,0.03267047194631423,0.2313721177871598,800.2197802197803,810.2930402930403,800.2197802197803,803.8461538461539,688.6080586080586,0.017334,0.11602799999999999,0.999756,2.557068,-2.960815,-1.958923,1.0,1.0,1.0,1.0,1.0,65.0,
2020-05-06 22:42:40.801,-0.169642611180185,-0.4628881078511866,-0.8430084167270258,-0.3758034435560142,0.1354122866217591,-0.018807704360317482,-0.3854288164136935,0.005506856714757993,0.26770395981754297,0.2902940761521831,-0.1521855831118125,0.29931597870548105,0.2570932833655917,0.5973533995930922,0.2865845067599265,0.4543646902385682,-0.009594172440568371,0.2783885492261063,0.03267047194631423,0.2313721177871598,818.3516483516484,807.4725274725274,812.7106227106227,801.025641025641,733.3333333333335,0.017334,0.11602799999999999,0.999756,2.557068,-2.960815,-1.958923,1.0,1.0,1.0,1.0,1.0,65.0,
2020-05-06 22:42:40.801,-0.169642611180185,-0.4628881078511866,-0.8430084167270258,-0.3758034435560142,0.1354122866217591,-0.018807704360317482,-0.3854288164136935,0.005506856714757993,0.26770395981754297,0.2902940761521831,-0.1521855831118125,0.29931597870548105,0.2570932833655917,0.5973533995930922,0.2865845067599265,0.4543646902385682,-0.009594172440568371,0.2783885492261063,0.03267047194631423,0.2313721177871598,814.7252747252749,805.4578754578755,817.5457875457877,797.8021978021977,666.0439560439562,0.017334,0.11602799999999999,0.999756,2.557068,-2.960815,-1.958923,1.0,1.0,1.0,1.0,1.0,65.0,
2020-05-06 22:42:40.802,-0.169642611180185,-0.4628881078511866,-0.8430084167270258,-0.3758034435560142,0.1354122866217591,-0.018807704360317482,-0.3854288164136935,0.005506856714757993,0.26770395981754297,0.2902940761521831,-0.1521855831118125,0.29931597870548105,0.2570932833655917,0.5973533995930922,0.2865845067599265,0.4543646902385682,-0.009594172440568371,0.2783885492261063,0.03267047194631423,0.2313721177871598,803.040293040293,806.2637362637363,814.3223443223442,803.8461538461539,723.2600732600732,0.017334,0.11602799999999999,0.999756,2.557068,-2.960815,-1.958923,1.0,1.0,1.0,1.0,1.0,65.0,
2020-05-06 22:42:40.802,-0.169642611180185,-0.4628881078511866,-0.8430084167270258,-0.3758034435560142,0.1354122866217591,-0.018807704360317482,-0.3854288164136935,0.005506856714757993,0.26770395981754297,0.2902940761521831,-0.1521855831118125,0.29931597870548105,0.2570932833655917,0.5973533995930922,0.2865845067599265,0.4543646902385682,-0.009594172440568371,0.2783885492261063,0.03267047194631423,0.2313721177871598,806.2637362637363,807.4725274725274,809.0842490842491,805.8608058608058,799.4139194139194,0.017334,0.11602799999999999,0.999756,2.557068,-2.960815,-1.958923,1.0,1.0,1.0,1.0,1.0,65.0,
2020-05-06 22:42:40.803,-0.169642611180185,-0.4628881078511866,-0.8430084167270258,-0.3758034435560142,0.1354122866217591,-0.018807704360317482,-0.3854288164136935,0.005506856714757993,0.26770395981754297,0.2902940761521831,-0.1521855831118125,0.29931597870548105,0.2570932833655917,0.5973533995930922,0.2865845067599265,0.4543646902385682,-0.009594172440568371,0.2783885492261063,0.03267047194631423,0.2313721177871598,820.7692307692308,796.5934065934067,806.6666666666667,805.8608058608058,780.4761904761905,0.017334,0.11602799999999999,0.999756,2.557068,-2.960815,-1.958923,1.0,1.0,1.0,1.0,1.0,65.0,
2020-05-06 22:42:40.803,-0.169642611180185,-0.4628881078511866,-0.8430084167270258,-0.3758034435560142,0.1354122866217591,-0.018807704360317482,-0.3854288164136935,0.005506856714757993,0.26770395981754297,0.2902940761521831,-0.1521855831118125,0.29931597870548105,0.2570932833655917,0.5973533995930922,0.2865845067599265,0.4543646902385682,-0.009594172440568371,0.2783885492261063,0.03267047194631423,0.2313721177871598,826.007326007326,791.3553113553114,809.8901098901099,802.2344322344322,773.2234432234433,0.017334,0.11602799999999999,0.999756,2.557068,-2.960815,-1.958923,1.0,1.0,1.0,1.0,1.0,65.0,
2020-05-06 22:42:40.803,-0.169642611180185,-0.4628881078511866,-0.8430084167270258,-0.3758034435560142,0.1354122866217591,-0.018807704360317482,-0.3854288164136935,0.005506856714757993,0.26770395981754297,0.2902940761521831,-0.1521855831118125,0.29931597870548105,0.2570932833655917,0.5973533995930922,0.2865845067599265,0.4543646902385682,-0.009594172440568371,0.2783885492261063,0.03267047194631423,0.2313721177871598,813.5164835164835,805.054945054945,810.2930402930403,799.8168498168499,743.809523809524,0.017334,0.11602799999999999,0.999756,2.557068,-2.960815,-1.958923,1.0,1.0,1.0,1.0,1.0,65.0,
2020-05-06 22:42:40.804,-0.169642611180185,-0.4628881078511866,-0.8430084167270258,-0.3758034435560142,0.1354122866217591,-0.018807704360317482,-0.3854288164136935,0.005506856714757993,0.26770395981754297,0.2902940761521831,-0.1521855831118125,0.29931597870548105,0.2570932833655917,0.5973533995930922,0.2865845067599265,0.4543646902385682,-0.009594172440568371,0.2783885492261063,0.03267047194631423,0.2313721177871598,801.4285714285713,804.2490842490844,802.6373626373628,806.2637362637363,708.3516483516484,0.017334,0.11602799999999999,0.999756,2.557068,-2.960815,-1.958923,1.0,1.0,1.0,1.0,1.0,65.0,
2020-05-06 22:42:40.804,-0.169642611180185,-0.4628881078511866,-0.8430084167270258,-0.3758034435560142,0.1354122866217591,-0.018807704360317482,-0.3854288164136935,0.005506856714757993,0.26770395981754297,0.2902940761521831,-0.1521855831118125,0.29931597870548105,0.2570932833655917,0.5973533995930922,0.2865845067599265,0.4543646902385682,-0.009594172440568371,0.2783885492261063,0.03267047194631423,0.2313721177871598,807.8754578754579,792.9670329670329,803.8461538461539,810.6959706959708,659.1941391941392,0.017334,0.11602799999999999,0.999756,2.557068,-2.960815,-1.958923,1.0,1.0,1.0,1.0,1.0,65.0,
2020-05-06 22:42:40.889,-0.169642611180185,-0.4628881078511866,-0.8430084167270258,-0.3758034435560142,0.1354122866217591,-0.018807704360317482,-0.3854288164136935,0.005506856714757993,0.26770395981754297,0.2902940761521831,-0.1521855831118125,0.29931597870548105,0.2570932833655917,0.5973533995930922,0.2865845067599265,0.4543646902385682,-0.009594172440568371,0.2783885492261063,0.03267047194631423,0.2313721177871598,809.4871794871796,787.7289377289377,802.6373626373628,798.2051282051282,804.6520146520148,0.012938999999999999,0.11755399999999999,1.004944,2.893524,-2.9084779999999997,-2.392578,1.0,1.0,1.0,1.0,1.0,65.0,
2020-05-06 22:42:40.892,-0.169642611180185,-0.4628881078511866,-0.8430084167270258,-0.3758034435560142,0.1354122866217591,-0.018807704360317482,-0.3854288164136935,0.005506856714757993,0.26770395981754297,0.2902940761521831,-0.1521855831118125,0.29931597870548105,0.2570932833655917,0.5973533995930922,0.2865845067599265,0.4543646902385682,-0.009594172440568371,0.2783885492261063,0.03267047194631423,0.2313721177871598,801.025641025641,801.8315018315019,796.1904761904763,793.3699633699633,1065.3479853479848,0.012938999999999999,0.11755399999999999,1.004944,2.893524,-2.9084779999999997,-2.392578,1.0,1.0,1.0,1.0,1.0,65.0,
2020-05-06 22:42:40.894,-0.169642611180185,-0.4628881078511866,-0.8430084167270258,-0.3758034435560142,0.1354122866217591,-0.018807704360317482,-0.3854288164136935,0.005506856714757993,0.26770395981754297,0.2902940761521831,-0.1521855831118125,0.29931597870548105,0.2570932833655917,0.5973533995930922,0.2865845067599265,0.4543646902385682,-0.009594172440568371,0.2783885492261063,0.03267047194631423,0.2313721177871598,799.8168498168499,813.1135531135533,803.8461538461539,796.9963369963369,890.4761904761905,0.012938999999999999,0.11755399999999999,1.004944,2.893524,-2.9084779999999997,-2.392578,1.0,1.0,1.0,1.0,1.0,65.0,
2020-05-06 22:42:40.895,-0.169642611180185,-0.4628881078511866,-0.8430084167270258,-0.3758034435560142,0.1354122866217591,-0.018807704360317482,-0.3854288164136935,0.005506856714757993,0.26770395981754297,0.2902940761521831,-0.1521855831118125,0.29931597870548105,0.2570932833655917,0.5973533995930922,0.2865845067599265,0.4543646902385682,-0.009594172440568371,0.2783885492261063,0.03267047194631423,0.2313721177871598,807.4725274725274,813.5164835164835,811.9047619047618,794.5787545787546,715.6043956043958,0.012938999999999999,0.11755399999999999,1.004944,2.893524,-2.9084779999999997,-2.392578,1.0,1.0,1.0,1.0,1.0,65.0,
2020-05-06 22:42:40.897,-0.169642611180185,-0.4628881078511866,-0.8430084167270258,-0.3758034435560142,0.1354122866217591,-0.018807704360317482,-0.3854288164136935,0.005506856714757993,0.26770395981754297,0.2902940761521831,-0.1521855831118125,0.29931597870548105,0.2570932833655917,0.5973533995930922,0.2865845067599265,0.4543646902385682,-0.009594172440568371,0.2783885492261063,0.03267047194631423,0.2313721177871598,819.96336996337,811.5018315018315,806.2637362637363,796.9963369963369,700.6959706959708,0.012938999999999999,0.11755399999999999,1.004944,2.893524,-2.9084779999999997,-2.392578,1.0,1.0,1.0,1.0,1.0,65.0,
2020-05-06 22:42:40.899,-0.169642611180185,-0.4628881078511866,-0.8430084167270258,-0.3758034435560142,0.1354122866217591,-0.018807704360317482,-0.3854288164136935,0.005506856714757993,0.26770395981754297,0.2902940761521831,-0.1521855831118125,0.29931597870548105,0.2570932833655917,0.5973533995930922,0.2865845067599265,0.4543646902385682,-0.009594172440568371,0.2783885492261063,0.03267047194631423,0.2313721177871598,809.4871794871796,812.7106227106227,804.2490842490844,802.6373626373628,718.021978021978,0.012938999999999999,0.11755399999999999,1.004944,2.893524,-2.9084779999999997,-2.392578,1.0,1.0,1.0,1.0,1.0,65.0,
2020-05-06 22:42:40.900,-0.169642611180185,-0.4628881078511866,-0.8430084167270258,-0.3758034435560142,0.1354122866217591,-0.018807704360317482,-0.3854288164136935,0.005506856714757993,0.26770395981754297,0.2902940761521831,-0.1521855831118125,0.29931597870548105,0.2570932833655917,0.5973533995930922,0.2865845067599265,0.4543646902385682,-0.009594172440568371,0.2783885492261063,0.03267047194631423,0.2313721177871598,792.1611721611722,807.8754578754579,810.2930402930403,802.2344322344322,847.7655677655678,0.012938999999999999,0.11755399999999999,1.004944,2.893524,-2.9084779999999997,-2.392578,1.0,1.0,1.0,1.0,1.0,65.0,
2020-05-06 22:42:40.902,-0.169642611180185,-0.4628881078511866,-0.8430084167270258,-0.3758034435560142,0.1354122866217591,-0.018807704360317482,-0.3854288164136935,0.005506856714757993,0.26770395981754297,0.2902940761521831,-0.1521855831118125,0.29931597870548105,0.2570932833655917,0.5973533995930922,0.2865845067599265,0.4543646902385682,-0.009594172440568371,0.2783885492261063,0.03267047194631423,0.2313721177871598,802.2344322344322,804.2490842490844,811.9047619047618,813.1135531135533,838.901098901099,0.012938999999999999,0.11755399999999999,1.004944,2.893524,-2.9084779999999997,-2.392578,1.0,1.0,1.0,1.0,1.0,65.0,
2020-05-06 22:42:40.904,-0.169642611180185,-0.4628881078511866,-0.8430084167270258,-0.3758034435560142,0.1354122866217591,-0.018807704360317482,-0.3854288164136935,0.005506856714757993,0.26770395981754297,0.2902940761521831,-0.1521855831118125,0.29931597870548105,0.2570932833655917,0.5973533995930922,0.2865845067599265,0.4543646902385682,-0.009594172440568371,0.2783885492261063,0.03267047194631423,0.2313721177871598,816.7399267399268,799.4139194139194,811.5018315018315,821.978021978022,973.0769230769232,0.012938999999999999,0.11755399999999999,1.004944,2.893524,-2.9084779999999997,-2.392578,1.0,1.0,1.0,1.0,1.0,65.0,
2020-05-06 22:42:40.906,-0.169642611180185,-0.4628881078511866,-0.8430084167270258,-0.3758034435560142,0.1354122866217591,-0.018807704360317482,-0.3854288164136935,0.005506856714757993,0.26770395981754297,0.2902940761521831,-0.1521855831118125,0.29931597870548105,0.2570932833655917,0.5973533995930922,0.2865845067599265,0.4543646902385682,-0.009594172440568371,0.2783885492261063,0.03267047194631423,0.2313721177871598,815.934065934066,799.0109890109891,809.0842490842491,809.8901098901099,1014.175824175824,0.012938999999999999,0.11755399999999999,1.004944,2.893524,-2.9084779999999997,-2.392578,1.0,1.0,1.0,1.0,1.0,65.0,
2020-05-06 22:42:40.908,-0.169642611180185,-0.4628881078511866,-0.8430084167270258,-0.3758034435560142,0.1354122866217591,-0.018807704360317482,-0.3854288164136935,0.005506856714757993,0.26770395981754297,0.2902940761521831,-0.1521855831118125,0.29931597870548105,0.2570932833655917,0.5973533995930922,0.2865845067599265,0.4543646902385682,-0.009594172440568371,0.2783885492261063,0.03267047194631423,0.2313721177871598,802.6373626373628,809.4871794871796,806.2637362637363,798.6080586080586,776.4468864468864,0.012938999999999999,0.11755399999999999,1.004944,2.893524,-2.9084779999999997,-2.392578,1.0,1.0,1.0,1.0,1.0,65.0,
2020-05-06 22:42:40.909,-0.1833221269455371,-0.4992701278700861,-0.8497969017230349,-0.3527522003102231,0.1259468391450639,-0.02707281397985059,-0.390155842701822,0.01852563784010315,0.2037801282472457,0.2902940761521831,-0.1383310528396852,0.288060878038971,0.2816775543028976,0.5947844877947943,0.2854338257813203,0.47538648334794603,0.009730429702322038,0.2842741824344574,0.0428195560923843,0.2219923601840962,790.1465201465203,813.1135531135533,807.8754578754579,796.1904761904763,699.0842490842491,0.012938999999999999,0.11755399999999999,1.004944,2.893524,-2.9084779999999997,-2.392578,1.0,1.0,1.0,1.0,1.0,65.0,
2020-05-06 22:42:40.916,-0.1833221269455371,-0.4992701278700861,-0.8497969017230349,-0.3527522003102231,0.1259468391450639,-0.02707281397985059,-0.390155842701822,0.01852563784010315,0.2037801282472457,0.2902940761521831,-0.1383310528396852,0.288060878038971,0.2816775543028976,0.5947844877947943,0.2854338257813203,0.47538648334794603,0.009730429702322038,0.2842741824344574,0.0428195560923843,0.2219923601840962,806.2637362637363,813.5164835164835,804.6520146520148,802.6373626373628,741.3919413919414,0.011292,0.116882,1.0027469999999998,2.6766970000000003,-2.549591,-2.5421139999999998,1.0,1.0,1.0,1.0,1.0,65.0,
2020-05-06 22:42:40.917,-0.1833221269455371,-0.4992701278700861,-0.8497969017230349,-0.3527522003102231,0.1259468391450639,-0.02707281397985059,-0.390155842701822,0.01852563784010315,0.2037801282472457,0.2902940761521831,-0.1383310528396852,0.288060878038971,0.2816775543028976,0.5947844877947943,0.2854338257813203,0.47538648334794603,0.009730429702322038,0.2842741824344574,0.0428195560923843,0.2219923601840962,816.3369963369963,806.2637362637363,803.8461538461539,810.6959706959708,797.3992673992674,0.011292,0.116882,1.0027469999999998,2.6766970000000003,-2.549591,-2.5421139999999998,1.0,1.0,1.0,1.0,1.0,65.0,
2020-05-06 22:42:40.917,-0.1833221269455371,-0.4992701278700861,-0.8497969017230349,-0.3527522003102231,0.1259468391450639,-0.02707281397985059,-0.390155842701822,0.01852563784010315,0.2037801282472457,0.2902940761521831,-0.1383310528396852,0.288060878038971,0.2816775543028976,0.5947844877947943,0.2854338257813203,0.47538648334794603,0.009730429702322038,0.2842741824344574,0.0428195560923843,0.2219923601840962,801.8315018315019,794.981684981685,809.4871794871796,798.6080586080586,754.2857142857142,0.011292,0.116882,1.0027469999999998,2.6766970000000003,-2.549591,-2.5421139999999998,1.0,1.0,1.0,1.0,1.0,65.0,
2020-05-06 22:42:40.918,-0.1833221269455371,-0.4992701278700861,-0.8497969017230349,-0.3527522003102231,0.1259468391450639,-0.02707281397985059,-0.390155842701822,0.01852563784010315,0.2037801282472457,0.2902940761521831,-0.1383310528396852,0.288060878038971,0.2816775543028976,0.5947844877947943,0.2854338257813203,0.47538648334794603,0.009730429702322038,0.2842741824344574,0.0428195560923843,0.2219923601840962,792.5641025641024,794.1758241758242,808.2783882783882,794.1758241758242,829.6336996336996,0.011292,0.116882,1.0027469999999998,2.6766970000000003,-2.549591,-2.5421139999999998,1.0,1.0,1.0,1.0,1.0,65.0,
2020-05-06 22:42:40.919,-0.1833221269455371,-0.4992701278700861,-0.8497969017230349,-0.3527522003102231,0.1259468391450639,-0.02707281397985059,-0.390155842701822,0.01852563784010315,0.2037801282472457,0.2902940761521831,-0.1383310528396852,0.288060878038971,0.2816775543028976,0.5947844877947943,0.2854338257813203,0.47538648334794603,0.009730429702322038,0.2842741824344574,0.0428195560923843,0.2219923601840962,803.4432234432236,796.9963369963369,807.4725274725274,801.8315018315019,963.809523809524,0.011292,0.116882,1.0027469999999998,2.6766970000000003,-2.549591,-2.5421139999999998,1.0,1.0,1.0,1.0,1.0,65.0,
2020-05-06 22:42:40.920,-0.1833221269455371,-0.4992701278700861,-0.8497969017230349,-0.3527522003102231,0.1259468391450639,-0.02707281397985059,-0.390155842701822,0.01852563784010315,0.2037801282472457,0.2902940761521831,-0.1383310528396852,0.288060878038971,0.2816775543028976,0.5947844877947943,0.2854338257813203,0.47538648334794603,0.009730429702322038,0.2842741824344574,0.0428195560923843,0.2219923601840962,809.4871794871796,799.8168498168499,804.6520146520148,798.6080586080586,940.03663003663,0.011292,0.116882,1.0027469999999998,2.6766970000000003,-2.549591,-2.5421139999999998,1.0,1.0,1.0,1.0,1.0,65.0,
2020-05-06 22:42:40.921,-0.1833221269455371,-0.4992701278700861,-0.8497969017230349,-0.3527522003102231,0.1259468391450639,-0.02707281397985059,-0.390155842701822,0.01852563784010315,0.2037801282472457,0.2902940761521831,-0.1383310528396852,0.288060878038971,0.2816775543028976,0.5947844877947943,0.2854338257813203,0.47538648334794603,0.009730429702322038,0.2842741824344574,0.0428195560923843,0.2219923601840962,801.025641025641,798.2051282051282,799.4139194139194,793.3699633699633,940.4395604395604,0.011292,0.116882,1.0027469999999998,2.6766970000000003,-2.549591,-2.5421139999999998,1.0,1.0,1.0,1.0,1.0,65.0,
2020-05-06 22:42:40.922,-0.1833221269455371,-0.4992701278700861,-0.8497969017230349,-0.3527522003102231,0.1259468391450639,-0.02707281397985059,-0.390155842701822,0.01852563784010315,0.2037801282472457,0.2902940761521831,-0.1383310528396852,0.288060878038971,0.2816775543028976,0.5947844877947943,0.2854338257813203,0.47538648334794603,0.009730429702322038,0.2842741824344574,0.0428195560923843,0.2219923601840962,795.3846153846154,795.3846153846154,801.025641025641,802.6373626373628,912.2344322344322,0.011292,0.116882,1.0027469999999998,2.6766970000000003,-2.549591,-2.5421139999999998,1.0,1.0,1.0,1.0,1.0,65.0,
2020-05-06 22:42:40.922,-0.1833221269455371,-0.4992701278700861,-0.8497969017230349,-0.3527522003102231,0.1259468391450639,-0.02707281397985059,-0.390155842701822,0.01852563784010315,0.2037801282472457,0.2902940761521831,-0.1383310528396852,0.288060878038971,0.2816775543028976,0.5947844877947943,0.2854338257813203,0.47538648334794603,0.009730429702322038,0.2842741824344574,0.0428195560923843,0.2219923601840962,801.025641025641,804.2490842490844,809.4871794871796,806.6666666666667,797.3992673992674,0.011292,0.116882,1.0027469999999998,2.6766970000000003,-2.549591,-2.5421139999999998,1.0,1.0,1.0,1.0,1.0,65.0,
2020-05-06 22:42:40.923,-0.1833221269455371,-0.4992701278700861,-0.8497969017230349,-0.3527522003102231,0.1259468391450639,-0.02707281397985059,-0.390155842701822,0.01852563784010315,0.2037801282472457,0.2902940761521831,-0.1383310528396852,0.288060878038971,0.2816775543028976,0.5947844877947943,0.2854338257813203,0.47538648334794603,0.009730429702322038,0.2842741824344574,0.0428195560923843,0.2219923601840962,807.4725274725274,810.2930402930403,811.098901098901,797.3992673992674,722.8571428571429,0.011292,0.116882,1.0027469999999998,2.6766970000000003,-2.549591,-2.5421139999999998,1.0,1.0,1.0,1.0,1.0,65.0,
2020-05-06 22:42:40.924,-0.1833221269455371,-0.4992701278700861,-0.8497969017230349,-0.3527522003102231,0.1259468391450639,-0.02707281397985059,-0.390155842701822,0.01852563784010315,0.2037801282472457,0.2902940761521831,-0.1383310528396852,0.288060878038971,0.2816775543028976,0.5947844877947943,0.2854338257813203,0.47538648334794603,0.009730429702322038,0.2842741824344574,0.0428195560923843,0.2219923601840962,801.4285714285713,805.4578754578755,808.6813186813188,792.5641025641024,695.054945054945,0.011292,0.116882,1.0027469999999998,2.6766970000000003,-2.549591,-2.5421139999999998,1.0,1.0,1.0,1.0,1.0,65.0,
2020-05-06 22:42:40.925,-0.1833221269455371,-0.4992701278700861,-0.8497969017230349,-0.3527522003102231,0.1259468391450639,-0.02707281397985059,-0.390155842701822,0.01852563784010315,0.2037801282472457,0.2902940761521831,-0.1383310528396852,0.288060878038971,0.2816775543028976,0.5947844877947943,0.2854338257813203,0.47538648334794603,0.009730429702322038,0.2842741824344574,0.0428195560923843,0.2219923601840962,789.3406593406594,798.6080586080586,805.4578754578755,801.025641025641,814.3223443223442,0.011292,0.116882,1.0027469999999998,2.6766970000000003,-2.549591,-2.5421139999999998,1.0,1.0,1.0,1.0,1.0,65.0,
2020-05-06 22:42:40.946,-0.1833221269455371,-0.4992701278700861,-0.8497969017230349,-0.3527522003102231,0.1259468391450639,-0.02707281397985059,-0.390155842701822,0.01852563784010315,0.2037801282472457,0.2902940761521831,-0.1383310528396852,0.288060878038971,0.2816775543028976,0.5947844877947943,0.2854338257813203,0.47538648334794603,0.009730429702322038,0.2842741824344574,0.0428195560923843,0.2219923601840962,795.7875457875458,804.2490842490844,807.0695970695972,811.098901098901,977.5091575091576,0.011292,0.116882,1.0027469999999998,2.6766970000000003,-2.549591,-2.5421139999999998,1.0,1.0,1.0,1.0,1.0,65.0,
2020-05-06 22:42:40.947,-0.1833221269455371,-0.4992701278700861,-0.8497969017230349,-0.3527522003102231,0.1259468391450639,-0.02707281397985059,-0.390155842701822,0.01852563784010315,0.2037801282472457,0.2902940761521831,-0.1383310528396852,0.288060878038971,0.2816775543028976,0.5947844877947943,0.2854338257813203,0.47538648334794603,0.009730429702322038,0.2842741824344574,0.0428195560923843,0.2219923601840962,812.3076923076924,809.0842490842491,808.6813186813188,806.6666666666667,810.6959706959708,0.011292,0.116882,1.0027469999999998,2.6766970000000003,-2.549591,-2.5421139999999998,1.0,1.0,1.0,1.0,1.0,65.0,
2020-05-06 22:42:40.948,-0.1833221269455371,-0.4992701278700861,-0.8497969017230349,-0.3527522003102231,0.1259468391450639,-0.02707281397985059,-0.390155842701822,0.01852563784010315,0.2037801282472457,0.2902940761521831,-0.1383310528396852,0.288060878038971,0.2816775543028976,0.5947844877947943,0.2854338257813203,0.47538648334794603,0.009730429702322038,0.2842741824344574,0.0428195560923843,0.2219923601840962,812.7106227106227,809.4871794871796,807.4725274725274,799.8168498168499,696.6666666666667,0.011292,0.116882,1.0027469999999998,2.6766970000000003,-2.549591,-2.5421139999999998,1.0,1.0,1.0,1.0,1.0,65.0,
2020-05-06 22:42:40.948,-0.1833221269455371,-0.4992701278700861,-0.8497969017230349,-0.3527522003102231,0.1259468391450639,-0.02707281397985059,-0.390155842701822,0.01852563784010315,0.2037801282472457,0.2902940761521831,-0.1383310528396852,0.288060878038971,0.2816775543028976,0.5947844877947943,0.2854338257813203,0.47538648334794603,0.009730429702322038,0.2842741824344574,0.0428195560923843,0.2219923601840962,797.8021978021977,809.0842490842491,807.8754578754579,808.2783882783882,685.3846153846154,0.011292,0.116882,1.0027469999999998,2.6766970000000003,-2.549591,-2.5421139999999998,1.0,1.0,1.0,1.0,1.0,65.0,
2020-05-06 22:42:40.948,-0.1833221269455371,-0.4992701278700861,-0.8497969017230349,-0.3527522003102231,0.1259468391450639,-0.02707281397985059,-0.390155842701822,0.01852563784010315,0.2037801282472457,0.2902940761521831,-0.1383310528396852,0.288060878038971,0.2816775543028976,0.5947844877947943,0.2854338257813203,0.47538648334794603,0.009730429702322038,0.2842741824344574,0.0428195560923843,0.2219923601840962,794.5787545787546,796.5934065934067,810.6959706959708,822.3809523809523,791.7582417582418,0.011292,0.116882,1.0027469999999998,2.6766970000000003,-2.549591,-2.5421139999999998,1.0,1.0,1.0,1.0,1.0,65.0,
2020-05-06 22:42:40.949,-0.1833221269455371,-0.4992701278700861,-0.8497969017230349,-0.3527522003102231,0.1259468391450639,-0.02707281397985059,-0.390155842701822,0.01852563784010315,0.2037801282472457,0.2902940761521831,-0.1383310528396852,0.288060878038971,0.2816775543028976,0.5947844877947943,0.2854338257813203,0.47538648334794603,0.009730429702322038,0.2842741824344574,0.0428195560923843,0.2219923601840962,810.2930402930403,787.3260073260074,815.5311355311355,815.934065934066,891.2820512820513,0.011292,0.116882,1.0027469999999998,2.6766970000000003,-2.549591,-2.5421139999999998,1.0,1.0,1.0,1.0,1.0,65.0,
2020-05-06 22:42:40.949,-0.1833221269455371,-0.4992701278700861,-0.8497969017230349,-0.3527522003102231,0.1259468391450639,-0.02707281397985059,-0.390155842701822,0.01852563784010315,0.2037801282472457,0.2902940761521831,-0.1383310528396852,0.288060878038971,0.2816775543028976,0.5947844877947943,0.2854338257813203,0.47538648334794603,0.009730429702322038,0.2842741824344574,0.0428195560923843,0.2219923601840962,813.9194139194141,797.3992673992674,813.9194139194141,803.8461538461539,846.959706959707,0.011292,0.116882,1.0027469999999998,2.6766970000000003,-2.549591,-2.5421139999999998,1.0,1.0,1.0,1.0,1.0,65.0,
2020-05-06 22:42:40.950,-0.1833221269455371,-0.4992701278700861,-0.8497969017230349,-0.3527522003102231,0.1259468391450639,-0.02707281397985059,-0.390155842701822,0.01852563784010315,0.2037801282472457,0.2902940761521831,-0.1383310528396852,0.288060878038971,0.2816775543028976,0.5947844877947943,0.2854338257813203,0.47538648334794603,0.009730429702322038,0.2842741824344574,0.0428195560923843,0.2219923601840962,802.6373626373628,809.4871794871796,808.6813186813188,800.2197802197803,897.7289377289377,0.011292,0.116882,1.0027469999999998,2.6766970000000003,-2.549591,-2.5421139999999998,1.0,1.0,1.0,1.0,1.0,65.0,
2020-05-06 22:42:40.950,-0.1833221269455371,-0.4992701278700861,-0.8497969017230349,-0.3527522003102231,0.1259468391450639,-0.02707281397985059,-0.390155842701822,0.01852563784010315,0.2037801282472457,0.2902940761521831,-0.1383310528396852,0.288060878038971,0.2816775543028976,0.5947844877947943,0.2854338257813203,0.47538648334794603,0.009730429702322038,0.2842741824344574,0.0428195560923843,0.2219923601840962,789.7435897435898,807.4725274725274,805.4578754578755,804.2490842490844,1058.498168498169,0.011292,0.116882,1.0027469999999998,2.6766970000000003,-2.549591,-2.5421139999999998,1.0,1.0,1.0,1.0,1.0,65.0,
2020-05-06 22:42:40.950,-0.1833221269455371,-0.4992701278700861,-0.8497969017230349,-0.3527522003102231,0.1259468391450639,-0.02707281397985059,-0.390155842701822,0.01852563784010315,0.2037801282472457,0.2902940761521831,-0.1383310528396852,0.288060878038971,0.2816775543028976,0.5947844877947943,0.2854338257813203,0.47538648334794603,0.009730429702322038,0.2842741824344574,0.0428195560923843,0.2219923601840962,798.2051282051282,796.9963369963369,808.6813186813188,803.8461538461539,913.846153846154,0.011292,0.116882,1.0027469999999998,2.6766970000000003,-2.549591,-2.5421139999999998,1.0,1.0,1.0,1.0,1.0,65.0,
2020-05-06 22:42:40.951,-0.1833221269455371,-0.4992701278700861,-0.8497969017230349,-0.3527522003102231,0.1259468391450639,-0.02707281397985059,-0.390155842701822,0.01852563784010315,0.2037801282472457,0.2902940761521831,-0.1383310528396852,0.288060878038971,0.2816775543028976,0.5947844877947943,0.2854338257813203,0.47538648334794603,0.009730429702322038,0.2842741824344574,0.0428195560923843,0.2219923601840962,812.3076923076924,801.025641025641,810.2930402930403,798.2051282051282,665.6410256410256,0.011292,0.116882,1.0027469999999998,2.6766970000000003,-2.549591,-2.5421139999999998,1.0,1.0,1.0,1.0,1.0,65.0,
2020-05-06 22:42:40.951,-0.1833221269455371,-0.4992701278700861,-0.8497969017230349,-0.3527522003102231,0.1259468391450639,-0.02707281397985059,-0.390155842701822,0.01852563784010315,0.2037801282472457,0.2902940761521831,-0.1383310528396852,0.288060878038971,0.2816775543028976,0.5947844877947943,0.2854338257813203,0.47538648334794603,0.009730429702322038,0.2842741824344574,0.0428195560923843,0.2219923601840962,808.2783882783882,806.6666666666667,809.8901098901099,796.9963369963369,603.992673992674,0.011292,0.116882,1.0027469999999998,2.6766970000000003,-2.549591,-2.5421139999999998,1.0,1.0,1.0,1.0,1.0,65.0,
2020-05-06 22:42:40.973,-0.1833221269455371,-0.4992701278700861,-0.8497969017230349,-0.3527522003102231,0.1259468391450639,-0.02707281397985059,-0.390155842701822,0.01852563784010315,0.2037801282472457,0.2902940761521831,-0.1383310528396852,0.288060878038971,0.2816775543028976,0.5947844877947943,0.2854338257813203,0.47538648334794603,0.009730429702322038,0.2842741824344574,0.0428195560923843,0.2219923601840962,807.0695970695972,808.2783882783882,808.2783882783882,801.4285714285713,604.7985347985348,0.007751000000000001,0.116577,1.003906,2.415009,-2.8411869999999997,-2.699127,1.0,1.0,1.0,1.0,1.0,65.0,
2020-05-06 22:42:40.973,-0.1773495400881774,-0.5097495615182206,-0.7852715371196436,-0.3032692896055427,0.1057816905643665,-0.03171423863352322,-0.3903316319460629,0.03804028369809923,0.15870222788409302,0.2902940761521831,-0.1456331167019574,0.2806830168792477,0.3062974158874726,0.5882854970059772,0.2859151046511147,0.4958080826969687,0.04339505672826189,0.28409559178058696,0.04962394430107568,0.2237745798621165,810.6959706959708,814.3223443223442,809.0842490842491,807.4725274725274,614.0659340659341,0.007751000000000001,0.116577,1.003906,2.415009,-2.8411869999999997,-2.699127,1.0,1.0,1.0,1.0,1.0,65.0,
2020-05-06 22:42:40.976,-0.1773495400881774,-0.5097495615182206,-0.7852715371196436,-0.3032692896055427,0.1057816905643665,-0.03171423863352322,-0.3903316319460629,0.03804028369809923,0.15870222788409302,0.2902940761521831,-0.1456331167019574,0.2806830168792477,0.3062974158874726,0.5882854970059772,0.2859151046511147,0.4958080826969687,0.04339505672826189,0.28409559178058696,0.04962394430107568,0.2237745798621165,812.3076923076924,813.1135531135533,812.3076923076924,799.4139194139194,676.5201465201467,0.007751000000000001,0.116577,1.003906,2.415009,-2.8411869999999997,-2.699127,1.0,1.0,1.0,1.0,1.0,65.0,
2020-05-06 22:42:40.976,-0.1773495400881774,-0.5097495615182206,-0.7852715371196436,-0.3032692896055427,0.1057816905643665,-0.03171423863352322,-0.3903316319460629,0.03804028369809923,0.15870222788409302,0.2902940761521831,-0.1456331167019574,0.2806830168792477,0.3062974158874726,0.5882854970059772,0.2859151046511147,0.4958080826969687,0.04339505672826189,0.28409559178058696,0.04962394430107568,0.2237745798621165,807.8754578754579,807.0695970695972,816.3369963369963,795.3846153846154,766.3736263736264,0.007751000000000001,0.116577,1.003906,2.415009,-2.8411869999999997,-2.699127,1.0,1.0,1.0,1.0,1.0,65.0,
2020-05-06 22:42:40.976,-0.1773495400881774,-0.5097495615182206,-0.7852715371196436,-0.3032692896055427,0.1057816905643665,-0.03171423863352322,-0.3903316319460629,0.03804028369809923,0.15870222788409302,0.2902940761521831,-0.1456331167019574,0.2806830168792477,0.3062974158874726,0.5882854970059772,0.2859151046511147,0.4958080826969687,0.04339505672826189,0.28409559178058696,0.04962394430107568,0.2237745798621165,801.025641025641,802.6373626373628,814.7252747252749,807.0695970695972,785.7142857142858,0.007751000000000001,0.116577,1.003906,2.415009,-2.8411869999999997,-2.699127,1.0,1.0,1.0,1.0,1.0,65.0,
2020-05-06 22:42:40.977,-0.1773495400881774,-0.5097495615182206,-0.7852715371196436,-0.3032692896055427,0.1057816905643665,-0.03171423863352322,-0.3903316319460629,0.03804028369809923,0.15870222788409302,0.2902940761521831,-0.1456331167019574,0.2806830168792477,0.3062974158874726,0.5882854970059772,0.2859151046511147,0.4958080826969687,0.04339505672826189,0.28409559178058696,0.04962394430107568,0.2237745798621165,802.6373626373628,795.3846153846154,803.8461538461539,820.7692307692308,772.0146520146519,0.007751000000000001,0.116577,1.003906,2.415009,-2.8411869999999997,-2.699127,1.0,1.0,1.0,1.0,1.0,65.0,
2020-05-06 22:42:40.977,-0.1773495400881774,-0.5097495615182206,-0.7852715371196436,-0.3032692896055427,0.1057816905643665,-0.03171423863352322,-0.3903316319460629,0.03804028369809923,0.15870222788409302,0.2902940761521831,-0.1456331167019574,0.2806830168792477,0.3062974158874726,0.5882854970059772,0.2859151046511147,0.4958080826969687,0.04339505672826189,0.28409559178058696,0.04962394430107568,0.2237745798621165,807.0695970695972,793.7728937728937,805.8608058608058,813.5164835164835,797.8021978021977,0.007751000000000001,0.116577,1.003906,2.415009,-2.8411869999999997,-2.699127,1.0,1.0,1.0,1.0,1.0,65.0,
2020-05-06 22:42:40.978,-0.1773495400881774,-0.5097495615182206,-0.7852715371196436,-0.3032692896055427,0.1057816905643665,-0.03171423863352322,-0.3903316319460629,0.03804028369809923,0.15870222788409302,0.2902940761521831,-0.1456331167019574,0.2806830168792477,0.3062974158874726,0.5882854970059772,0.2859151046511147,0.4958080826969687,0.04339505672826189,0.28409559178058696,0.04962394430107568,0.2237745798621165,808.6813186813188,796.9963369963369,815.5311355311355,803.8461538461539,844.945054945055,0.007751000000000001,0.116577,1.003906,2.415009,-2.8411869999999997,-2.699127,1.0,1.0,1.0,1.0,1.0,65.0,
2020-05-06 22:42:40.978,-0.1773495400881774,-0.5097495615182206,-0.7852715371196436,-0.3032692896055427,0.1057816905643665,-0.03171423863352322,-0.3903316319460629,0.03804028369809923,0.15870222788409302,0.2902940761521831,-0.1456331167019574,0.2806830168792477,0.3062974158874726,0.5882854970059772,0.2859151046511147,0.4958080826969687,0.04339505672826189,0.28409559178058696,0.04962394430107568,0.2237745798621165,802.2344322344322,799.0109890109891,813.9194139194141,810.6959706959708,808.2783882783882,0.007751000000000001,0.116577,1.003906,2.415009,-2.8411869999999997,-2.699127,1.0,1.0,1.0,1.0,1.0,65.0,
2020-05-06 22:42:40.978,-0.1773495400881774,-0.5097495615182206,-0.7852715371196436,-0.3032692896055427,0.1057816905643665,-0.03171423863352322,-0.3903316319460629,0.03804028369809923,0.15870222788409302,0.2902940761521831,-0.1456331167019574,0.2806830168792477,0.3062974158874726,0.5882854970059772,0.2859151046511147,0.4958080826969687,0.04339505672826189,0.28409559178058696,0.04962394430107568,0.2237745798621165,797.8021978021977,807.4725274725274,811.5018315018315,806.6666666666667,789.7435897435898,0.007751000000000001,0.116577,1.003906,2.415009,-2.8411869999999997,-2.699127,1.0,1.0,1.0,1.0,1.0,65.0,
2020-05-06 22:42:40.979,-0.1773495400881774,-0.5097495615182206,-0.7852715371196436,-0.3032692896055427,0.1057816905643665,-0.03171423863352322,-0.3903316319460629,0.03804028369809923,0.15870222788409302,0.2902940761521831,-0.1456331167019574,0.2806830168792477,0.3062974158874726,0.5882854970059772,0.2859151046511147,0.4958080826969687,0.04339505672826189,0.28409559178058696,0.04962394430107568,0.2237745798621165,802.2344322344322,805.4578754578755,808.2783882783882,801.8315018315019,876.7765567765567,0.007751000000000001,0.116577,1.003906,2.415009,-2.8411869999999997,-2.699127,1.0,1.0,1.0,1.0,1.0,65.0,
2020-05-06 22:42:40.979,-0.1773495400881774,-0.5097495615182206,-0.7852715371196436,-0.3032692896055427,0.1057816905643665,-0.03171423863352322,-0.3903316319460629,0.03804028369809923,0.15870222788409302,0.2902940761521831,-0.1456331167019574,0.2806830168792477,0.3062974158874726,0.5882854970059772,0.2859151046511147,0.4958080826969687,0.04339505672826189,0.28409559178058696,0.04962394430107568,0.2237745798621165,811.9047619047618,803.8461538461539,805.054945054945,799.4139194139194,1043.5897435897439,0.007751000000000001,0.116577,1.003906,2.415009,-2.8411869999999997,-2.699127,1.0,1.0,1.0,1.0,1.0,65.0,
2020-05-06 22:42:41.021,-0.1773495400881774,-0.5097495615182206,-0.7852715371196436,-0.3032692896055427,0.1057816905643665,-0.03171423863352322,-0.3903316319460629,0.03804028369809923,0.15870222788409302,0.2902940761521831,-0.1456331167019574,0.2806830168792477,0.3062974158874726,0.5882854970059772,0.2859151046511147,0.4958080826969687,0.04339505672826189,0.28409559178058696,0.04962394430107568,0.2237745798621165,801.8315018315019,811.098901098901,807.0695970695972,794.5787545787546,935.2014652014653,0.010620000000000001,0.11639400000000001,1.003906,2.714081,-2.945862,-2.624359,1.0,1.0,1.0,1.0,1.0,65.0,
2020-05-06 22:42:41.022,-0.1773495400881774,-0.5097495615182206,-0.7852715371196436,-0.3032692896055427,0.1057816905643665,-0.03171423863352322,-0.3903316319460629,0.03804028369809923,0.15870222788409302,0.2902940761521831,-0.1456331167019574,0.2806830168792477,0.3062974158874726,0.5882854970059772,0.2859151046511147,0.4958080826969687,0.04339505672826189,0.28409559178058696,0.04962394430107568,0.2237745798621165,796.1904761904763,807.4725274725274,807.4725274725274,809.8901098901099,802.2344322344322,0.010620000000000001,0.11639400000000001,1.003906,2.714081,-2.945862,-2.624359,1.0,1.0,1.0,1.0,1.0,65.0,
2020-05-06 22:42:41.023,-0.1773495400881774,-0.5097495615182206,-0.7852715371196436,-0.3032692896055427,0.1057816905643665,-0.03171423863352322,-0.3903316319460629,0.03804028369809923,0.15870222788409302,0.2902940761521831,-0.1456331167019574,0.2806830168792477,0.3062974158874726,0.5882854970059772,0.2859151046511147,0.4958080826969687,0.04339505672826189,0.28409559178058696,0.04962394430107568,0.2237745798621165,809.0842490842491,800.2197802197803,805.8608058608058,817.948717948718,820.7692307692308,0.010620000000000001,0.11639400000000001,1.003906,2.714081,-2.945862,-2.624359,1.0,1.0,1.0,1.0,1.0,65.0,
2020-05-06 22:42:41.023,-0.1773495400881774,-0.5097495615182206,-0.7852715371196436,-0.3032692896055427,0.1057816905643665,-0.03171423863352322,-0.3903316319460629,0.03804028369809923,0.15870222788409302,0.2902940761521831,-0.1456331167019574,0.2806830168792477,0.3062974158874726,0.5882854970059772,0.2859151046511147,0.4958080826969687,0.04339505672826189,0.28409559178058696,0.04962394430107568,0.2237745798621165,804.2490842490844,803.4432234432236,807.0695970695972,797.8021978021977,732.5274725274727,0.010620000000000001,0.11639400000000001,1.003906,2.714081,-2.945862,-2.624359,1.0,1.0,1.0,1.0,1.0,65.0,
2020-05-06 22:42:41.023,-0.1773495400881774,-0.5097495615182206,-0.7852715371196436,-0.3032692896055427,0.1057816905643665,-0.03171423863352322,-0.3903316319460629,0.03804028369809923,0.15870222788409302,0.2902940761521831,-0.1456331167019574,0.2806830168792477,0.3062974158874726,0.5882854970059772,0.2859151046511147,0.4958080826969687,0.04339505672826189,0.28409559178058696,0.04962394430107568,0.2237745798621165,793.7728937728937,807.8754578754579,813.9194139194141,789.7435897435898,726.4835164835165,0.010620000000000001,0.11639400000000001,1.003906,2.714081,-2.945862,-2.624359,1.0,1.0,1.0,1.0,1.0,65.0,
2020-05-06 22:42:41.024,-0.1773495400881774,-0.5097495615182206,-0.7852715371196436,-0.3032692896055427,0.1057816905643665,-0.03171423863352322,-0.3903316319460629,0.03804028369809923,0.15870222788409302,0.2902940761521831,-0.1456331167019574,0.2806830168792477,0.3062974158874726,0.5882854970059772,0.2859151046511147,0.4958080826969687,0.04339505672826189,0.28409559178058696,0.04962394430107568,0.2237745798621165,801.4285714285713,804.2490842490844,815.934065934066,800.6227106227108,745.4212454212454,0.010620000000000001,0.11639400000000001,1.003906,2.714081,-2.945862,-2.624359,1.0,1.0,1.0,1.0,1.0,65.0,
2020-05-06 22:42:41.024,-0.1773495400881774,-0.5097495615182206,-0.7852715371196436,-0.3032692896055427,0.1057816905643665,-0.03171423863352322,-0.3903316319460629,0.03804028369809923,0.15870222788409302,0.2902940761521831,-0.1456331167019574,0.2806830168792477,0.3062974158874726,0.5882854970059772,0.2859151046511147,0.4958080826969687,0.04339505672826189,0.28409559178058696,0.04962394430107568,0.2237745798621165,805.8608058608058,811.5018315018315,809.8901098901099,807.8754578754579,970.6593406593408,0.010620000000000001,0.11639400000000001,1.003906,2.714081,-2.945862,-2.624359,1.0,1.0,1.0,1.0,1.0,65.0,
2020-05-06 22:42:41.024,-0.1773495400881774,-0.5097495615182206,-0.7852715371196436,-0.3032692896055427,0.1057816905643665,-0.03171423863352322,-0.3903316319460629,0.03804028369809923,0.15870222788409302,0.2902940761521831,-0.1456331167019574,0.2806830168792477,0.3062974158874726,0.5882854970059772,0.2859151046511147,0.4958080826969687,0.04339505672826189,0.28409559178058696,0.04962394430107568,0.2237745798621165,815.5311355311355,819.96336996337,811.5018315018315,808.6813186813188,1056.483516483516,0.010620000000000001,0.11639400000000001,1.003906,2.714081,-2.945862,-2.624359,1.0,1.0,1.0,1.0,1.0,65.0,
2020-05-06 22:42:41.025,-0.1773495400881774,-0.5097495615182206,-0.7852715371196436,-0.3032692896055427,0.1057816905643665,-0.03171423863352322,-0.3903316319460629,0.03804028369809923,0.15870222788409302,0.2902940761521831,-0.1456331167019574,0.2806830168792477,0.3062974158874726,0.5882854970059772,0.2859151046511147,0.4958080826969687,0.04339505672826189,0.28409559178058696,0.04962394430107568,0.2237745798621165,821.5750915750915,819.5604395604396,819.5604395604396,798.6080586080586,711.978021978022,0.010620000000000001,0.11639400000000001,1.003906,2.714081,-2.945862,-2.624359,1.0,1.0,1.0,1.0,1.0,65.0,
2020-05-06 22:42:41.025,-0.1773495400881774,-0.5097495615182206,-0.7852715371196436,-0.3032692896055427,0.1057816905643665,-0.03171423863352322,-0.3903316319460629,0.03804028369809923,0.15870222788409302,0.2902940761521831,-0.1456331167019574,0.2806830168792477,0.3062974158874726,0.5882854970059772,0.2859151046511147,0.4958080826969687,0.04339505672826189,0.28409559178058696,0.04962394430107568,0.2237745798621165,807.4725274725274,815.5311355311355,814.7252747252749,789.7435897435898,754.6886446886447,0.010620000000000001,0.11639400000000001,1.003906,2.714081,-2.945862,-2.624359,1.0,1.0,1.0,1.0,1.0,65.0,
2020-05-06 22:42:41.026,-0.1773495400881774,-0.5097495615182206,-0.7852715371196436,-0.3032692896055427,0.1057816905643665,-0.03171423863352322,-0.3903316319460629,0.03804028369809923,0.15870222788409302,0.2902940761521831,-0.1456331167019574,0.2806830168792477,0.3062974158874726,0.5882854970059772,0.2859151046511147,0.4958080826969687,0.04339505672826189,0.28409559178058696,0.04962394430107568,0.2237745798621165,806.2637362637363,809.4871794871796,807.4725274725274,790.1465201465203,753.8827838827838,0.010620000000000001,0.11639400000000001,1.003906,2.714081,-2.945862,-2.624359,1.0,1.0,1.0,1.0,1.0,65.0,
2020-05-06 22:42:41.026,-0.1773495400881774,-0.5097495615182206,-0.7852715371196436,-0.3032692896055427,0.1057816905643665,-0.03171423863352322,-0.3903316319460629,0.03804028369809923,0.15870222788409302,0.2902940761521831,-0.1456331167019574,0.2806830168792477,0.3062974158874726,0.5882854970059772,0.2859151046511147,0.4958080826969687,0.04339505672826189,0.28409559178058696,0.04962394430107568,0.2237745798621165,813.9194139194141,802.2344322344322,799.4139194139194,793.3699633699633,597.948717948718,0.010620000000000001,0.11639400000000001,1.003906,2.714081,-2.945862,-2.624359,1.0,1.0,1.0,1.0,1.0,65.0,
2020-05-06 22:42:41.090,-0.1773495400881774,-0.5097495615182206,-0.7852715371196436,-0.3032692896055427,0.1057816905643665,-0.03171423863352322,-0.3903316319460629,0.03804028369809923,0.15870222788409302,0.2902940761521831,-0.1456331167019574,0.2806830168792477,0.3062974158874726,0.5882854970059772,0.2859151046511147,0.4958080826969687,0.04339505672826189,0.28409559178058696,0.04962394430107568,0.2237745798621165,811.098901098901,809.4871794871796,792.9670329670329,799.0109890109891,712.3809523809523,0.013428,0.116638,1.001343,2.3626709999999997,-3.3645629999999995,-2.4823,1.0,1.0,1.0,1.0,1.0,65.0,
2020-05-06 22:42:41.091,-0.1773495400881774,-0.5097495615182206,-0.7852715371196436,-0.3032692896055427,0.1057816905643665,-0.03171423863352322,-0.3903316319460629,0.03804028369809923,0.15870222788409302,0.2902940761521831,-0.1456331167019574,0.2806830168792477,0.3062974158874726,0.5882854970059772,0.2859151046511147,0.4958080826969687,0.04339505672826189,0.28409559178058696,0.04962394430107568,0.2237745798621165,796.9963369963369,815.934065934066,796.5934065934067,798.2051282051282,773.2234432234433,0.013428,0.116638,1.001343,2.3626709999999997,-3.3645629999999995,-2.4823,1.0,1.0,1.0,1.0,1.0,65.0,
2020-05-06 22:42:41.091,-0.1773495400881774,-0.5097495615182206,-0.7852715371196436,-0.3032692896055427,0.1057816905643665,-0.03171423863352322,-0.3903316319460629,0.03804028369809923,0.15870222788409302,0.2902940761521831,-0.1456331167019574,0.2806830168792477,0.3062974158874726,0.5882854970059772,0.2859151046511147,0.4958080826969687,0.04339505672826189,0.28409559178058696,0.04962394430107568,0.2237745798621165,792.1611721611722,807.0695970695972,803.4432234432236,804.6520146520148,751.0622710622711,0.013428,0.116638,1.001343,2.3626709999999997,-3.3645629999999995,-2.4823,1.0,1.0,1.0,1.0,1.0,65.0,
2020-05-06 22:42:41.092,-0.1507531200489468,-0.4917205858742536,-0.6882517972332212,-0.2479052649849008,0.07595756632535527,-0.0288143456827117,-0.3878599248504099,0.0514791383438202,0.1446680196362562,0.2908948610646716,-0.1579421953490444,0.2777750738659689,0.3276462163698602,0.5784718370662641,0.2874127957673253,0.5072868094473617,0.08279713392401028,0.2743588190831222,0.05081223263606606,0.2410956491241751,803.8461538461539,808.6813186813188,806.2637362637363,811.9047619047618,749.4505494505495,0.013428,0.116638,1.001343,2.3626709999999997,-3.3645629999999995,-2.4823,1.0,1.0,1.0,1.0,1.0,65.0,
2020-05-06 22:42:41.095,-0.1507531200489468,-0.4917205858742536,-0.6882517972332212,-0.2479052649849008,0.07595756632535527,-0.0288143456827117,-0.3878599248504099,0.0514791383438202,0.1446680196362562,0.2908948610646716,-0.1579421953490444,0.2777750738659689,0.3276462163698602,0.5784718370662641,0.2874127957673253,0.5072868094473617,0.08279713392401028,0.2743588190831222,0.05081223263606606,0.2410956491241751,815.5311355311355,814.3223443223442,805.4578754578755,808.2783882783882,689.0109890109891,0.013428,0.116638,1.001343,2.3626709999999997,-3.3645629999999995,-2.4823,1.0,1.0,1.0,1.0,1.0,65.0,
2020-05-06 22:42:41.096,-0.1507531200489468,-0.4917205858742536,-0.6882517972332212,-0.2479052649849008,0.07595756632535527,-0.0288143456827117,-0.3878599248504099,0.0514791383438202,0.1446680196362562,0.2908948610646716,-0.1579421953490444,0.2777750738659689,0.3276462163698602,0.5784718370662641,0.2874127957673253,0.5072868094473617,0.08279713392401028,0.2743588190831222,0.05081223263606606,0.2410956491241751,809.4871794871796,808.2783882783882,806.6666666666667,799.0109890109891,736.5567765567764,0.013428,0.116638,1.001343,2.3626709999999997,-3.3645629999999995,-2.4823,1.0,1.0,1.0,1.0,1.0,65.0,
2020-05-06 22:42:41.097,-0.1507531200489468,-0.4917205858742536,-0.6882517972332212,-0.2479052649849008,0.07595756632535527,-0.0288143456827117,-0.3878599248504099,0.0514791383438202,0.1446680196362562,0.2908948610646716,-0.1579421953490444,0.2777750738659689,0.3276462163698602,0.5784718370662641,0.2874127957673253,0.5072868094473617,0.08279713392401028,0.2743588190831222,0.05081223263606606,0.2410956491241751,794.5787545787546,806.2637362637363,803.4432234432236,797.3992673992674,788.9377289377289,0.013428,0.116638,1.001343,2.3626709999999997,-3.3645629999999995,-2.4823,1.0,1.0,1.0,1.0,1.0,65.0,
2020-05-06 22:42:41.097,-0.1507531200489468,-0.4917205858742536,-0.6882517972332212,-0.2479052649849008,0.07595756632535527,-0.0288143456827117,-0.3878599248504099,0.0514791383438202,0.1446680196362562,0.2908948610646716,-0.1579421953490444,0.2777750738659689,0.3276462163698602,0.5784718370662641,0.2874127957673253,0.5072868094473617,0.08279713392401028,0.2743588190831222,0.05081223263606606,0.2410956491241751,802.6373626373628,815.1282051282053,806.6666666666667,807.8754578754579,749.047619047619,0.013428,0.116638,1.001343,2.3626709999999997,-3.3645629999999995,-2.4823,1.0,1.0,1.0,1.0,1.0,65.0,
2020-05-06 22:42:41.097,-0.1507531200489468,-0.4917205858742536,-0.6882517972332212,-0.2479052649849008,0.07595756632535527,-0.0288143456827117,-0.3878599248504099,0.0514791383438202,0.1446680196362562,0.2908948610646716,-0.1579421953490444,0.2777750738659689,0.3276462163698602,0.5784718370662641,0.2874127957673253,0.5072868094473617,0.08279713392401028,0.2743588190831222,0.05081223263606606,0.2410956491241751,819.1575091575091,805.054945054945,810.2930402930403,807.4725274725274,728.4981684981685,0.013428,0.116638,1.001343,2.3626709999999997,-3.3645629999999995,-2.4823,1.0,1.0,1.0,1.0,1.0,65.0,
2020-05-06 22:42:41.098,-0.1507531200489468,-0.4917205858742536,-0.6882517972332212,-0.2479052649849008,0.07595756632535527,-0.0288143456827117,-0.3878599248504099,0.0514791383438202,0.1446680196362562,0.2908948610646716,-0.1579421953490444,0.2777750738659689,0.3276462163698602,0.5784718370662641,0.2874127957673253,0.5072868094473617,0.08279713392401028,0.2743588190831222,0.05081223263606606,0.2410956491241751,808.2783882783882,782.8937728937731,798.2051282051282,801.4285714285713,833.6630036630037,0.013428,0.116638,1.001343,2.3626709999999997,-3.3645629999999995,-2.4823,1.0,1.0,1.0,1.0,1.0,65.0,
2020-05-06 22:42:41.098,-0.1507531200489468,-0.4917205858742536,-0.6882517972332212,-0.2479052649849008,0.07595756632535527,-0.0288143456827117,-0.3878599248504099,0.0514791383438202,0.1446680196362562,0.2908948610646716,-0.1579421953490444,0.2777750738659689,0.3276462163698602,0.5784718370662641,0.2874127957673253,0.5072868094473617,0.08279713392401028,0.2743588190831222,0.05081223263606606,0.2410956491241751,793.3699633699633,786.1172161172162,791.7582417582418,803.4432234432236,1001.2820512820509,0.013428,0.116638,1.001343,2.3626709999999997,-3.3645629999999995,-2.4823,1.0,1.0,1.0,1.0,1.0,65.0,
2020-05-06 22:42:41.098,-0.1507531200489468,-0.4917205858742536,-0.6882517972332212,-0.2479052649849008,0.07595756632535527,-0.0288143456827117,-0.3878599248504099,0.0514791383438202,0.1446680196362562,0.2908948610646716,-0.1579421953490444,0.2777750738659689,0.3276462163698602,0.5784718370662641,0.2874127957673253,0.5072868094473617,0.08279713392401028,0.2743588190831222,0.05081223263606606,0.2410956491241751,792.5641025641024,800.6227106227108,802.6373626373628,803.8461538461539,943.2600732600732,0.013428,0.116638,1.001343,2.3626709999999997,-3.3645629999999995,-2.4823,1.0,1.0,1.0,1.0,1.0,65.0,
2020-05-06 22:42:41.120,-0.1507531200489468,-0.4917205858742536,-0.6882517972332212,-0.2479052649849008,0.07595756632535527,-0.0288143456827117,-0.3878599248504099,0.0514791383438202,0.1446680196362562,0.2908948610646716,-0.1579421953490444,0.2777750738659689,0.3276462163698602,0.5784718370662641,0.2874127957673253,0.5072868094473617,0.08279713392401028,0.2743588190831222,0.05081223263606606,0.2410956491241751,799.8168498168499,810.6959706959708,808.2783882783882,804.6520146520148,845.3479853479854,0.010193,0.113098,1.001343,3.005676,-3.274841,-2.4823,1.0,1.0,1.0,1.0,1.0,65.0,
2020-05-06 22:42:41.121,-0.1507531200489468,-0.4917205858742536,-0.6882517972332212,-0.2479052649849008,0.07595756632535527,-0.0288143456827117,-0.3878599248504099,0.0514791383438202,0.1446680196362562,0.2908948610646716,-0.1579421953490444,0.2777750738659689,0.3276462163698602,0.5784718370662641,0.2874127957673253,0.5072868094473617,0.08279713392401028,0.2743588190831222,0.05081223263606606,0.2410956491241751,805.4578754578755,810.6959706959708,804.6520146520148,794.1758241758242,818.3516483516484,0.010193,0.113098,1.001343,3.005676,-3.274841,-2.4823,1.0,1.0,1.0,1.0,1.0,65.0,
2020-05-06 22:42:41.121,-0.1507531200489468,-0.4917205858742536,-0.6882517972332212,-0.2479052649849008,0.07595756632535527,-0.0288143456827117,-0.3878599248504099,0.0514791383438202,0.1446680196362562,0.2908948610646716,-0.1579421953490444,0.2777750738659689,0.3276462163698602,0.5784718370662641,0.2874127957673253,0.5072868094473617,0.08279713392401028,0.2743588190831222,0.05081223263606606,0.2410956491241751,798.2051282051282,812.3076923076924,807.4725274725274,781.6849816849817,784.5054945054945,0.010193,0.113098,1.001343,3.005676,-3.274841,-2.4823,1.0,1.0,1.0,1.0,1.0,65.0,
2020-05-06 22:42:41.121,-0.1507531200489468,-0.4917205858742536,-0.6882517972332212,-0.2479052649849008,0.07595756632535527,-0.0288143456827117,-0.3878599248504099,0.0514791383438202,0.1446680196362562,0.2908948610646716,-0.1579421953490444,0.2777750738659689,0.3276462163698602,0.5784718370662641,0.2874127957673253,0.5072868094473617,0.08279713392401028,0.2743588190831222,0.05081223263606606,0.2410956491241751,794.981684981685,811.5018315018315,810.2930402930403,792.1611721611722,786.1172161172162,0.010193,0.113098,1.001343,3.005676,-3.274841,-2.4823,1.0,1.0,1.0,1.0,1.0,65.0,
2020-05-06 22:42:41.122,-0.1507531200489468,-0.4917205858742536,-0.6882517972332212,-0.2479052649849008,0.07595756632535527,-0.0288143456827117,-0.3878599248504099,0.0514791383438202,0.1446680196362562,0.2908948610646716,-0.1579421953490444,0.2777750738659689,0.3276462163698602,0.5784718370662641,0.2874127957673253,0.5072868094473617,0.08279713392401028,0.2743588190831222,0.05081223263606606,0.2410956491241751,803.4432234432236,814.7252747252749,812.7106227106227,794.981684981685,736.5567765567764,0.010193,0.113098,1.001343,3.005676,-3.274841,-2.4823,1.0,1.0,1.0,1.0,1.0,65.0,
2020-05-06 22:42:41.122,-0.1507531200489468,-0.4917205858742536,-0.6882517972332212,-0.2479052649849008,0.07595756632535527,-0.0288143456827117,-0.3878599248504099,0.0514791383438202,0.1446680196362562,0.2908948610646716,-0.1579421953490444,0.2777750738659689,0.3276462163698602,0.5784718370662641,0.2874127957673253,0.5072868094473617,0.08279713392401028,0.2743588190831222,0.05081223263606606,0.2410956491241751,804.2490842490844,807.4725274725274,812.3076923076924,792.1611721611722,961.7948717948718,0.010193,0.113098,1.001343,3.005676,-3.274841,-2.4823,1.0,1.0,1.0,1.0,1.0,65.0,
2020-05-06 22:42:41.123,-0.1507531200489468,-0.4917205858742536,-0.6882517972332212,-0.2479052649849008,0.07595756632535527,-0.0288143456827117,-0.3878599248504099,0.0514791383438202,0.1446680196362562,0.2908948610646716,-0.1579421953490444,0.2777750738659689,0.3276462163698602,0.5784718370662641,0.2874127957673253,0.5072868094473617,0.08279713392401028,0.2743588190831222,0.05081223263606606,0.2410956491241751,796.9963369963369,794.5787545787546,808.6813186813188,795.3846153846154,1166.080586080586,0.010193,0.113098,1.001343,3.005676,-3.274841,-2.4823,1.0,1.0,1.0,1.0,1.0,65.0,
2020-05-06 22:42:41.123,-0.1507531200489468,-0.4917205858742536,-0.6882517972332212,-0.2479052649849008,0.07595756632535527,-0.0288143456827117,-0.3878599248504099,0.0514791383438202,0.1446680196362562,0.2908948610646716,-0.1579421953490444,0.2777750738659689,0.3276462163698602,0.5784718370662641,0.2874127957673253,0.5072868094473617,0.08279713392401028,0.2743588190831222,0.05081223263606606,0.2410956491241751,794.1758241758242,808.6813186813188,802.2344322344322,798.6080586080586,876.3736263736264,0.010193,0.113098,1.001343,3.005676,-3.274841,-2.4823,1.0,1.0,1.0,1.0,1.0,65.0,
2020-05-06 22:42:41.123,-0.1507531200489468,-0.4917205858742536,-0.6882517972332212,-0.2479052649849008,0.07595756632535527,-0.0288143456827117,-0.3878599248504099,0.0514791383438202,0.1446680196362562,0.2908948610646716,-0.1579421953490444,0.2777750738659689,0.3276462163698602,0.5784718370662641,0.2874127957673253,0.5072868094473617,0.08279713392401028,0.2743588190831222,0.05081223263606606,0.2410956491241751,795.7875457875458,809.4871794871796,795.3846153846154,799.8168498168499,717.2161172161173,0.010193,0.113098,1.001343,3.005676,-3.274841,-2.4823,1.0,1.0,1.0,1.0,1.0,65.0,
2020-05-06 22:42:41.124,-0.1507531200489468,-0.4917205858742536,-0.6882517972332212,-0.2479052649849008,0.07595756632535527,-0.0288143456827117,-0.3878599248504099,0.0514791383438202,0.1446680196362562,0.2908948610646716,-0.1579421953490444,0.2777750738659689,0.3276462163698602,0.5784718370662641,0.2874127957673253,0.5072868094473617,0.08279713392401028,0.2743588190831222,0.05081223263606606,0.2410956491241751,803.8461538461539,803.8461538461539,803.8461538461539,799.8168498168499,693.040293040293,0.010193,0.113098,1.001343,3.005676,-3.274841,-2.4823,1.0,1.0,1.0,1.0,1.0,65.0,
2020-05-06 22:42:41.124,-0.1507531200489468,-0.4917205858742536,-0.6882517972332212,-0.2479052649849008,0.07595756632535527,-0.0288143456827117,-0.3878599248504099,0.0514791383438202,0.1446680196362562,0.2908948610646716,-0.1579421953490444,0.2777750738659689,0.3276462163698602,0.5784718370662641,0.2874127957673253,0.5072868094473617,0.08279713392401028,0.2743588190831222,0.05081223263606606,0.2410956491241751,796.1904761904763,794.1758241758242,811.5018315018315,798.6080586080586,683.3699633699633,0.010193,0.113098,1.001343,3.005676,-3.274841,-2.4823,1.0,1.0,1.0,1.0,1.0,65.0,
2020-05-06 22:42:41.124,-0.1507531200489468,-0.4917205858742536,-0.6882517972332212,-0.2479052649849008,0.07595756632535527,-0.0288143456827117,-0.3878599248504099,0.0514791383438202,0.1446680196362562,0.2908948610646716,-0.1579421953490444,0.2777750738659689,0.3276462163698602,0.5784718370662641,0.2874127957673253,0.5072868094473617,0.08279713392401028,0.2743588190831222,0.05081223263606606,0.2410956491241751,784.1025641025641,791.7582417582418,805.4578754578755,797.8021978021977,635.8241758241759,0.010193,0.113098,1.001343,3.005676,-3.274841,-2.4823,1.0,1.0,1.0,1.0,1.0,65.0,
2020-05-06 22:42:41.209,-0.1507531200489468,-0.4917205858742536,-0.6882517972332212,-0.2479052649849008,0.07595756632535527,-0.0288143456827117,-0.3878599248504099,0.0514791383438202,0.1446680196362562,0.2908948610646716,-0.1579421953490444,0.2777750738659689,0.3276462163698602,0.5784718370662641,0.2874127957673253,0.5072868094473617,0.08279713392401028,0.2743588190831222,0.05081223263606606,0.2410956491241751,792.9670329670329,808.2783882783882,807.8754578754579,797.8021978021977,666.8498168498169,0.010193,0.113098,1.001343,3.005676,-3.274841,-2.4823,1.0,1.0,1.0,1.0,1.0,65.0,
2020-05-06 22:42:41.212,-0.1507531200489468,-0.4917205858742536,-0.6882517972332212,-0.2479052649849008,0.07595756632535527,-0.0288143456827117,-0.3878599248504099,0.0514791383438202,0.1446680196362562,0.2908948610646716,-0.1579421953490444,0.2777750738659689,0.3276462163698602,0.5784718370662641,0.2874127957673253,0.5072868094473617,0.08279713392401028,0.2743588190831222,0.05081223263606606,0.2410956491241751,804.6520146520148,810.6959706959708,808.2783882783882,793.7728937728937,891.2820512820513,0.010193,0.113098,1.001343,3.005676,-3.274841,-2.4823,1.0,1.0,1.0,1.0,1.0,65.0,
2020-05-06 22:42:41.214,-0.1507531200489468,-0.4917205858742536,-0.6882517972332212,-0.2479052649849008,0.07595756632535527,-0.0288143456827117,-0.3878599248504099,0.0514791383438202,0.1446680196362562,0.2908948610646716,-0.1579421953490444,0.2777750738659689,0.3276462163698602,0.5784718370662641,0.2874127957673253,0.5072868094473617,0.08279713392401028,0.2743588190831222,0.05081223263606606,0.2410956491241751,809.8901098901099,807.0695970695972,806.2637362637363,796.9963369963369,925.1282051282053,0.010193,0.113098,1.001343,3.005676,-3.274841,-2.4823,1.0,1.0,1.0,1.0,1.0,65.0,
2020-05-06 22:42:41.216,-0.1507531200489468,-0.4917205858742536,-0.6882517972332212,-0.2479052649849008,0.07595756632535527,-0.0288143456827117,-0.3878599248504099,0.0514791383438202,0.1446680196362562,0.2908948610646716,-0.1579421953490444,0.2777750738659689,0.3276462163698602,0.5784718370662641,0.2874127957673253,0.5072868094473617,0.08279713392401028,0.2743588190831222,0.05081223263606606,0.2410956491241751,805.054945054945,805.4578754578755,810.6959706959708,805.8608058608058,879.5970695970697,0.010193,0.113098,1.001343,3.005676,-3.274841,-2.4823,1.0,1.0,1.0,1.0,1.0,65.0,
2020-05-06 22:42:41.217,-0.1507531200489468,-0.4917205858742536,-0.6882517972332212,-0.2479052649849008,0.07595756632535527,-0.0288143456827117,-0.3878599248504099,0.0514791383438202,0.1446680196362562,0.2908948610646716,-0.1579421953490444,0.2777750738659689,0.3276462163698602,0.5784718370662641,0.2874127957673253,0.5072868094473617,0.08279713392401028,0.2743588190831222,0.05081223263606606,0.2410956491241751,798.2051282051282,801.025641025641,806.6666666666667,802.6373626373628,789.7435897435898,0.010193,0.113098,1.001343,3.005676,-3.274841,-2.4823,1.0,1.0,1.0,1.0,1.0,65.0,
2020-05-06 22:42:41.219,-0.112379292984529,-0.4584399845738566,-0.6127820030344392,-0.1995406738568438,0.04153777698539828,-0.02092385468670075,-0.3863643300109834,0.05255016179905668,0.1259736720351003,0.296644649384764,-0.17333944529989903,0.3010246811358153,0.3444679876592138,0.5673227963009186,0.2895450624307618,0.5101496766462001,0.1136618198506445,0.2548469157740875,0.046702575368456185,0.2659995248267336,804.6520146520148,795.3846153846154,801.8315018315019,799.0109890109891,681.7582417582418,0.010193,0.113098,1.001343,3.005676,-3.274841,-2.4823,1.0,1.0,1.0,1.0,1.0,65.0,
2020-05-06 22:42:41.228,-0.112379292984529,-0.4584399845738566,-0.6127820030344392,-0.1995406738568438,0.04153777698539828,-0.02092385468670075,-0.3863643300109834,0.05255016179905668,0.1259736720351003,0.296644649384764,-0.17333944529989903,0.3010246811358153,0.3444679876592138,0.5673227963009186,0.2895450624307618,0.5101496766462001,0.1136618198506445,0.2548469157740875,0.046702575368456185,0.2659995248267336,808.6813186813188,799.4139194139194,804.6520146520148,802.2344322344322,725.6776556776558,0.010193,0.113098,1.001343,3.005676,-3.274841,-2.4823,1.0,1.0,1.0,1.0,1.0,65.0,
2020-05-06 22:42:41.229,-0.112379292984529,-0.4584399845738566,-0.6127820030344392,-0.1995406738568438,0.04153777698539828,-0.02092385468670075,-0.3863643300109834,0.05255016179905668,0.1259736720351003,0.296644649384764,-0.17333944529989903,0.3010246811358153,0.3444679876592138,0.5673227963009186,0.2895450624307618,0.5101496766462001,0.1136618198506445,0.2548469157740875,0.046702575368456185,0.2659995248267336,795.7875457875458,805.4578754578755,808.2783882783882,805.8608058608058,626.5567765567765,0.010193,0.113098,1.001343,3.005676,-3.274841,-2.4823,1.0,1.0,1.0,1.0,1.0,65.0,
2020-05-06 22:42:41.230,-0.112379292984529,-0.4584399845738566,-0.6127820030344392,-0.1995406738568438,0.04153777698539828,-0.02092385468670075,-0.3863643300109834,0.05255016179905668,0.1259736720351003,0.296644649384764,-0.17333944529989903,0.3010246811358153,0.3444679876592138,0.5673227963009186,0.2895450624307618,0.5101496766462001,0.1136618198506445,0.2548469157740875,0.046702575368456185,0.2659995248267336,787.7289377289377,799.8168498168499,810.2930402930403,811.9047619047618,619.3040293040292,0.010193,0.113098,1.001343,3.005676,-3.274841,-2.4823,1.0,1.0,1.0,1.0,1.0,65.0,
2020-05-06 22:42:41.231,-0.112379292984529,-0.4584399845738566,-0.6127820030344392,-0.1995406738568438,0.04153777698539828,-0.02092385468670075,-0.3863643300109834,0.05255016179905668,0.1259736720351003,0.296644649384764,-0.17333944529989903,0.3010246811358153,0.3444679876592138,0.5673227963009186,0.2895450624307618,0.5101496766462001,0.1136618198506445,0.2548469157740875,0.046702575368456185,0.2659995248267336,802.6373626373628,800.2197802197803,812.7106227106227,818.3516483516484,952.9304029304027,0.010193,0.113098,1.001343,3.005676,-3.274841,-2.4823,1.0,1.0,1.0,1.0,1.0,65.0,
2020-05-06 22:42:41.232,-0.112379292984529,-0.4584399845738566,-0.6127820030344392,-0.1995406738568438,0.04153777698539828,-0.02092385468670075,-0.3863643300109834,0.05255016179905668,0.1259736720351003,0.296644649384764,-0.17333944529989903,0.3010246811358153,0.3444679876592138,0.5673227963009186,0.2895450624307618,0.5101496766462001,0.1136618198506445,0.2548469157740875,0.046702575368456185,0.2659995248267336,820.3663003663004,808.2783882783882,816.7399267399268,813.5164835164835,922.3076923076924,0.010193,0.113098,1.001343,3.005676,-3.274841,-2.4823,1.0,1.0,1.0,1.0,1.0,65.0,
2020-05-06 22:42:41.233,-0.112379292984529,-0.4584399845738566,-0.6127820030344392,-0.1995406738568438,0.04153777698539828,-0.02092385468670075,-0.3863643300109834,0.05255016179905668,0.1259736720351003,0.296644649384764,-0.17333944529989903,0.3010246811358153,0.3444679876592138,0.5673227963009186,0.2895450624307618,0.5101496766462001,0.1136618198506445,0.2548469157740875,0.046702575368456185,0.2659995248267336,812.7106227106227,807.4725274725274,817.948717948718,808.2783882783882,679.7435897435898,0.010193,0.113098,1.001343,3.005676,-3.274841,-2.4823,1.0,1.0,1.0,1.0,1.0,65.0,
2020-05-06 22:42:41.234,-0.112379292984529,-0.4584399845738566,-0.6127820030344392,-0.1995406738568438,0.04153777698539828,-0.02092385468670075,-0.3863643300109834,0.05255016179905668,0.1259736720351003,0.296644649384764,-0.17333944529989903,0.3010246811358153,0.3444679876592138,0.5673227963009186,0.2895450624307618,0.5101496766462001,0.1136618198506445,0.2548469157740875,0.046702575368456185,0.2659995248267336,805.8608058608058,801.8315018315019,815.5311355311355,807.4725274725274,721.6483516483516,0.011475,0.11926300000000001,1.000305,2.594452,-3.200073,-2.280426,1.0,1.0,1.0,1.0,1.0,65.0,
2020-05-06 22:42:41.235,-0.112379292984529,-0.4584399845738566,-0.6127820030344392,-0.1995406738568438,0.04153777698539828,-0.02092385468670075,-0.3863643300109834,0.05255016179905668,0.1259736720351003,0.296644649384764,-0.17333944529989903,0.3010246811358153,0.3444679876592138,0.5673227963009186,0.2895450624307618,0.5101496766462001,0.1136618198506445,0.2548469157740875,0.046702575368456185,0.2659995248267336,819.5604395604396,791.3553113553114,816.7399267399268,812.3076923076924,797.8021978021977,0.011475,0.11926300000000001,1.000305,2.594452,-3.200073,-2.280426,1.0,1.0,1.0,1.0,1.0,65.0,
2020-05-06 22:42:41.235,-0.112379292984529,-0.4584399845738566,-0.6127820030344392,-0.1995406738568438,0.04153777698539828,-0.02092385468670075,-0.3863643300109834,0.05255016179905668,0.1259736720351003,0.296644649384764,-0.17333944529989903,0.3010246811358153,0.3444679876592138,0.5673227963009186,0.2895450624307618,0.5101496766462001,0.1136618198506445,0.2548469157740875,0.046702575368456185,0.2659995248267336,823.992673992674,790.1465201465203,809.4871794871796,810.6959706959708,783.2967032967032,0.011475,0.11926300000000001,1.000305,2.594452,-3.200073,-2.280426,1.0,1.0,1.0,1.0,1.0,65.0,
2020-05-06 22:42:41.236,-0.112379292984529,-0.4584399845738566,-0.6127820030344392,-0.1995406738568438,0.04153777698539828,-0.02092385468670075,-0.3863643300109834,0.05255016179905668,0.1259736720351003,0.296644649384764,-0.17333944529989903,0.3010246811358153,0.3444679876592138,0.5673227963009186,0.2895450624307618,0.5101496766462001,0.1136618198506445,0.2548469157740875,0.046702575368456185,0.2659995248267336,810.6959706959708,793.7728937728937,800.2197802197803,803.4432234432236,748.2417582417582,0.011475,0.11926300000000001,1.000305,2.594452,-3.200073,-2.280426,1.0,1.0,1.0,1.0,1.0,65.0,
2020-05-06 22:42:41.237,-0.112379292984529,-0.4584399845738566,-0.6127820030344392,-0.1995406738568438,0.04153777698539828,-0.02092385468670075,-0.3863643300109834,0.05255016179905668,0.1259736720351003,0.296644649384764,-0.17333944529989903,0.3010246811358153,0.3444679876592138,0.5673227963009186,0.2895450624307618,0.5101496766462001,0.1136618198506445,0.2548469157740875,0.046702575368456185,0.2659995248267336,799.8168498168499,805.054945054945,807.0695970695972,805.054945054945,805.4578754578755,0.011475,0.11926300000000001,1.000305,2.594452,-3.200073,-2.280426,1.0,1.0,1.0,1.0,1.0,65.0,
2020-05-06 22:42:41.238,-0.112379292984529,-0.4584399845738566,-0.6127820030344392,-0.1995406738568438,0.04153777698539828,-0.02092385468670075,-0.3863643300109834,0.05255016179905668,0.1259736720351003,0.296644649384764,-0.17333944529989903,0.3010246811358153,0.3444679876592138,0.5673227963009186,0.2895450624307618,0.5101496766462001,0.1136618198506445,0.2548469157740875,0.046702575368456185,0.2659995248267336,797.3992673992674,808.2783882783882,813.5164835164835,795.3846153846154,846.1538461538463,0.011475,0.11926300000000001,1.000305,2.594452,-3.200073,-2.280426,1.0,1.0,1.0,1.0,1.0,65.0,
2020-05-06 22:42:41.239,-0.112379292984529,-0.4584399845738566,-0.6127820030344392,-0.1995406738568438,0.04153777698539828,-0.02092385468670075,-0.3863643300109834,0.05255016179905668,0.1259736720351003,0.296644649384764,-0.17333944529989903,0.3010246811358153,0.3444679876592138,0.5673227963009186,0.2895450624307618,0.5101496766462001,0.1136618198506445,0.2548469157740875,0.046702575368456185,0.2659995248267336,793.3699633699633,807.0695970695972,811.9047619047618,783.2967032967032,815.5311355311355,0.011475,0.11926300000000001,1.000305,2.594452,-3.200073,-2.280426,1.0,1.0,1.0,1.0,1.0,65.0,
2020-05-06 22:42:41.240,-0.112379292984529,-0.4584399845738566,-0.6127820030344392,-0.1995406738568438,0.04153777698539828,-0.02092385468670075,-0.3863643300109834,0.05255016179905668,0.1259736720351003,0.296644649384764,-0.17333944529989903,0.3010246811358153,0.3444679876592138,0.5673227963009186,0.2895450624307618,0.5101496766462001,0.1136618198506445,0.2548469157740875,0.046702575368456185,0.2659995248267336,786.9230769230769,811.9047619047618,807.0695970695972,780.8791208791209,843.3333333333335,0.011475,0.11926300000000001,1.000305,2.594452,-3.200073,-2.280426,1.0,1.0,1.0,1.0,1.0,65.0,
2020-05-06 22:42:41.240,-0.112379292984529,-0.4584399845738566,-0.6127820030344392,-0.1995406738568438,0.04153777698539828,-0.02092385468670075,-0.3863643300109834,0.05255016179905668,0.1259736720351003,0.296644649384764,-0.17333944529989903,0.3010246811358153,0.3444679876592138,0.5673227963009186,0.2895450624307618,0.5101496766462001,0.1136618198506445,0.2548469157740875,0.046702575368456185,0.2659995248267336,781.6849816849817,805.054945054945,806.2637362637363,784.1025641025641,803.040293040293,0.011475,0.11926300000000001,1.000305,2.594452,-3.200073,-2.280426,1.0,1.0,1.0,1.0,1.0,65.0,
2020-05-06 22:42:41.241,-0.112379292984529,-0.4584399845738566,-0.6127820030344392,-0.1995406738568438,0.04153777698539828,-0.02092385468670075,-0.3863643300109834,0.05255016179905668,0.1259736720351003,0.296644649384764,-0.17333944529989903,0.3010246811358153,0.3444679876592138,0.5673227963009186,0.2895450624307618,0.5101496766462001,0.1136618198506445,0.2548469157740875,0.046702575368456185,0.2659995248267336,792.5641025641024,798.2051282051282,808.6813186813188,790.1465201465203,800.6227106227108,0.011475,0.11926300000000001,1.000305,2.594452,-3.200073,-2.280426,1.0,1.0,1.0,1.0,1.0,65.0,
2020-05-06 22:42:41.242,-0.112379292984529,-0.4584399845738566,-0.6127820030344392,-0.1995406738568438,0.04153777698539828,-0.02092385468670075,-0.3863643300109834,0.05255016179905668,0.1259736720351003,0.296644649384764,-0.17333944529989903,0.3010246811358153,0.3444679876592138,0.5673227963009186,0.2895450624307618,0.5101496766462001,0.1136618198506445,0.2548469157740875,0.046702575368456185,0.2659995248267336,809.8901098901099,795.7875457875458,813.1135531135533,795.3846153846154,825.6043956043958,0.011475,0.11926300000000001,1.000305,2.594452,-3.200073,-2.280426,1.0,1.0,1.0,1.0,1.0,65.0,
2020-05-06 22:42:41.243,-0.112379292984529,-0.4584399845738566,-0.6127820030344392,-0.1995406738568438,0.04153777698539828,-0.02092385468670075,-0.3863643300109834,0.05255016179905668,0.1259736720351003,0.296644649384764,-0.17333944529989903,0.3010246811358153,0.3444679876592138,0.5673227963009186,0.2895450624307618,0.5101496766462001,0.1136618198506445,0.2548469157740875,0.046702575368456185,0.2659995248267336,813.5164835164835,790.952380952381,812.3076923076924,805.054945054945,743.4065934065933,0.011475,0.11926300000000001,1.000305,2.594452,-3.200073,-2.280426,1.0,1.0,1.0,1.0,1.0,65.0,
2020-05-06 22:42:41.265,-0.112379292984529,-0.4584399845738566,-0.6127820030344392,-0.1995406738568438,0.04153777698539828,-0.02092385468670075,-0.3863643300109834,0.05255016179905668,0.1259736720351003,0.296644649384764,-0.17333944529989903,0.3010246811358153,0.3444679876592138,0.5673227963009186,0.2895450624307618,0.5101496766462001,0.1136618198506445,0.2548469157740875,0.046702575368456185,0.2659995248267336,802.2344322344322,778.8644688644688,800.6227106227108,809.4871794871796,931.978021978022,0.016052,0.11608900000000001,1.001709,2.661743,-3.140259,-2.15332,1.0,1.0,1.0,1.0,1.0,65.0,
2020-05-06 22:42:41.265,-0.112379292984529,-0.4584399845738566,-0.6127820030344392,-0.1995406738568438,0.04153777698539828,-0.02092385468670075,-0.3863643300109834,0.05255016179905668,0.1259736720351003,0.296644649384764,-0.17333944529989903,0.3010246811358153,0.3444679876592138,0.5673227963009186,0.2895450624307618,0.5101496766462001,0.1136618198506445,0.2548469157740875,0.046702575368456185,0.2659995248267336,796.9963369963369,783.2967032967032,798.2051282051282,804.6520146520148,944.4688644688645,0.016052,0.11608900000000001,1.001709,2.661743,-3.140259,-2.15332,1.0,1.0,1.0,1.0,1.0,65.0,
2020-05-06 22:42:41.266,-0.112379292984529,-0.4584399845738566,-0.6127820030344392,-0.1995406738568438,0.04153777698539828,-0.02092385468670075,-0.3863643300109834,0.05255016179905668,0.1259736720351003,0.296644649384764,-0.17333944529989903,0.3010246811358153,0.3444679876592138,0.5673227963009186,0.2895450624307618,0.5101496766462001,0.1136618198506445,0.2548469157740875,0.046702575368456185,0.2659995248267336,800.6227106227108,805.4578754578755,801.025641025641,799.8168498168499,713.1868131868132,0.016052,0.11608900000000001,1.001709,2.661743,-3.140259,-2.15332,1.0,1.0,1.0,1.0,1.0,65.0,
2020-05-06 22:42:41.266,-0.112379292984529,-0.4584399845738566,-0.6127820030344392,-0.1995406738568438,0.04153777698539828,-0.02092385468670075,-0.3863643300109834,0.05255016179905668,0.1259736720351003,0.296644649384764,-0.17333944529989903,0.3010246811358153,0.3444679876592138,0.5673227963009186,0.2895450624307618,0.5101496766462001,0.1136618198506445,0.2548469157740875,0.046702575368456185,0.2659995248267336,801.025641025641,806.6666666666667,803.040293040293,784.5054945054945,713.1868131868132,0.016052,0.11608900000000001,1.001709,2.661743,-3.140259,-2.15332,1.0,1.0,1.0,1.0,1.0,65.0,
2020-05-06 22:42:41.266,-0.112379292984529,-0.4584399845738566,-0.6127820030344392,-0.1995406738568438,0.04153777698539828,-0.02092385468670075,-0.3863643300109834,0.05255016179905668,0.1259736720351003,0.296644649384764,-0.17333944529989903,0.3010246811358153,0.3444679876592138,0.5673227963009186,0.2895450624307618,0.5101496766462001,0.1136618198506445,0.2548469157740875,0.046702575368456185,0.2659995248267336,799.8168498168499,794.5787545787546,812.3076923076924,778.4615384615386,676.5201465201467,0.016052,0.11608900000000001,1.001709,2.661743,-3.140259,-2.15332,1.0,1.0,1.0,1.0,1.0,65.0,
2020-05-06 22:42:41.267,-0.112379292984529,-0.4584399845738566,-0.6127820030344392,-0.1995406738568438,0.04153777698539828,-0.02092385468670075,-0.3863643300109834,0.05255016179905668,0.1259736720351003,0.296644649384764,-0.17333944529989903,0.3010246811358153,0.3444679876592138,0.5673227963009186,0.2895450624307618,0.5101496766462001,0.1136618198506445,0.2548469157740875,0.046702575368456185,0.2659995248267336,796.9963369963369,803.4432234432236,814.3223443223442,794.1758241758242,738.974358974359,0.016052,0.11608900000000001,1.001709,2.661743,-3.140259,-2.15332,1.0,1.0,1.0,1.0,1.0,65.0,
2020-05-06 22:42:41.267,-0.112379292984529,-0.4584399845738566,-0.6127820030344392,-0.1995406738568438,0.04153777698539828,-0.02092385468670075,-0.3863643300109834,0.05255016179905668,0.1259736720351003,0.296644649384764,-0.17333944529989903,0.3010246811358153,0.3444679876592138,0.5673227963009186,0.2895450624307618,0.5101496766462001,0.1136618198506445,0.2548469157740875,0.046702575368456185,0.2659995248267336,798.2051282051282,813.9194139194141,808.6813186813188,799.4139194139194,922.7106227106227,0.016052,0.11608900000000001,1.001709,2.661743,-3.140259,-2.15332,1.0,1.0,1.0,1.0,1.0,65.0,
2020-05-06 22:42:41.267,-0.07430751526012805,-0.4195107751227205,-0.5675765180859714,-0.1629005762228926,0.009576068862930543,-0.01392114802311892,-0.3874053525541234,0.046068275406069004,0.1341594291294573,0.296644649384764,-0.1683060396237843,0.3480849283253215,0.3554551247479034,0.5589970311589683,0.2918188640540212,0.5106511204704164,0.1284189902400964,0.2316240285715001,0.04021143434252016,0.2866655041178875,802.6373626373628,810.2930402930403,807.4725274725274,792.1611721611722,929.5604395604396,0.016052,0.11608900000000001,1.001709,2.661743,-3.140259,-2.15332,1.0,1.0,1.0,1.0,1.0,65.0,
2020-05-06 22:42:41.270,-0.07430751526012805,-0.4195107751227205,-0.5675765180859714,-0.1629005762228926,0.009576068862930543,-0.01392114802311892,-0.3874053525541234,0.046068275406069004,0.1341594291294573,0.296644649384764,-0.1683060396237843,0.3480849283253215,0.3554551247479034,0.5589970311589683,0.2918188640540212,0.5106511204704164,0.1284189902400964,0.2316240285715001,0.04021143434252016,0.2866655041178875,794.1758241758242,802.2344322344322,809.0842490842491,796.9963369963369,1018.608058608059,0.016052,0.11608900000000001,1.001709,2.661743,-3.140259,-2.15332,1.0,1.0,1.0,1.0,1.0,65.0,
2020-05-06 22:42:41.270,-0.07430751526012805,-0.4195107751227205,-0.5675765180859714,-0.1629005762228926,0.009576068862930543,-0.01392114802311892,-0.3874053525541234,0.046068275406069004,0.1341594291294573,0.296644649384764,-0.1683060396237843,0.3480849283253215,0.3554551247479034,0.5589970311589683,0.2918188640540212,0.5106511204704164,0.1284189902400964,0.2316240285715001,0.04021143434252016,0.2866655041178875,782.0879120879122,796.9963369963369,811.9047619047618,805.4578754578755,1174.5421245421248,0.016052,0.11608900000000001,1.001709,2.661743,-3.140259,-2.15332,1.0,1.0,1.0,1.0,1.0,65.0,
2020-05-06 22:42:41.271,-0.07430751526012805,-0.4195107751227205,-0.5675765180859714,-0.1629005762228926,0.009576068862930543,-0.01392114802311892,-0.3874053525541234,0.046068275406069004,0.1341594291294573,0.296644649384764,-0.1683060396237843,0.3480849283253215,0.3554551247479034,0.5589970311589683,0.2918188640540212,0.5106511204704164,0.1284189902400964,0.2316240285715001,0.04021143434252016,0.2866655041178875,791.3553113553114,803.040293040293,816.3369963369963,802.6373626373628,941.2454212454213,0.016052,0.11608900000000001,1.001709,2.661743,-3.140259,-2.15332,1.0,1.0,1.0,1.0,1.0,65.0,
2020-05-06 22:42:41.271,-0.07430751526012805,-0.4195107751227205,-0.5675765180859714,-0.1629005762228926,0.009576068862930543,-0.01392114802311892,-0.3874053525541234,0.046068275406069004,0.1341594291294573,0.296644649384764,-0.1683060396237843,0.3480849283253215,0.3554551247479034,0.5589970311589683,0.2918188640540212,0.5106511204704164,0.1284189902400964,0.2316240285715001,0.04021143434252016,0.2866655041178875,802.6373626373628,810.2930402930403,815.1282051282053,806.2637362637363,706.3369963369963,0.016052,0.11608900000000001,1.001709,2.661743,-3.140259,-2.15332,1.0,1.0,1.0,1.0,1.0,65.0,
2020-05-06 22:42:41.334,-0.07430751526012805,-0.4195107751227205,-0.5675765180859714,-0.1629005762228926,0.009576068862930543,-0.01392114802311892,-0.3874053525541234,0.046068275406069004,0.1341594291294573,0.296644649384764,-0.1683060396237843,0.3480849283253215,0.3554551247479034,0.5589970311589683,0.2918188640540212,0.5106511204704164,0.1284189902400964,0.2316240285715001,0.04021143434252016,0.2866655041178875,797.3992673992674,799.0109890109891,820.7692307692308,801.4285714285713,708.3516483516484,0.013244999999999998,0.116882,1.003296,2.549591,-3.416901,-2.557068,1.0,1.0,1.0,1.0,1.0,65.0,
2020-05-06 22:42:41.335,-0.07430751526012805,-0.4195107751227205,-0.5675765180859714,-0.1629005762228926,0.009576068862930543,-0.01392114802311892,-0.3874053525541234,0.046068275406069004,0.1341594291294573,0.296644649384764,-0.1683060396237843,0.3480849283253215,0.3554551247479034,0.5589970311589683,0.2918188640540212,0.5106511204704164,0.1284189902400964,0.2316240285715001,0.04021143434252016,0.2866655041178875,785.7142857142858,794.5787545787546,824.7985347985347,796.9963369963369,672.0879120879122,0.013244999999999998,0.116882,1.003296,2.549591,-3.416901,-2.557068,1.0,1.0,1.0,1.0,1.0,65.0,
2020-05-06 22:42:41.336,-0.07430751526012805,-0.4195107751227205,-0.5675765180859714,-0.1629005762228926,0.009576068862930543,-0.01392114802311892,-0.3874053525541234,0.046068275406069004,0.1341594291294573,0.296644649384764,-0.1683060396237843,0.3480849283253215,0.3554551247479034,0.5589970311589683,0.2918188640540212,0.5106511204704164,0.1284189902400964,0.2316240285715001,0.04021143434252016,0.2866655041178875,794.5787545787546,804.2490842490844,819.5604395604396,807.0695970695972,641.4652014652015,0.013244999999999998,0.116882,1.003296,2.549591,-3.416901,-2.557068,1.0,1.0,1.0,1.0,1.0,65.0,
2020-05-06 22:42:41.336,-0.07430751526012805,-0.4195107751227205,-0.5675765180859714,-0.1629005762228926,0.009576068862930543,-0.01392114802311892,-0.3874053525541234,0.046068275406069004,0.1341594291294573,0.296644649384764,-0.1683060396237843,0.3480849283253215,0.3554551247479034,0.5589970311589683,0.2918188640540212,0.5106511204704164,0.1284189902400964,0.2316240285715001,0.04021143434252016,0.2866655041178875,810.6959706959708,804.6520146520148,823.5897435897436,822.3809523809523,752.2710622710623,0.013244999999999998,0.116882,1.003296,2.549591,-3.416901,-2.557068,1.0,1.0,1.0,1.0,1.0,65.0,
2020-05-06 22:42:41.337,-0.07430751526012805,-0.4195107751227205,-0.5675765180859714,-0.1629005762228926,0.009576068862930543,-0.01392114802311892,-0.3874053525541234,0.046068275406069004,0.1341594291294573,0.296644649384764,-0.1683060396237843,0.3480849283253215,0.3554551247479034,0.5589970311589683,0.2918188640540212,0.5106511204704164,0.1284189902400964,0.2316240285715001,0.04021143434252016,0.2866655041178875,816.3369963369963,803.8461538461539,830.8424908424909,818.3516483516484,767.5824175824176,0.013244999999999998,0.116882,1.003296,2.549591,-3.416901,-2.557068,1.0,1.0,1.0,1.0,1.0,65.0,
2020-05-06 22:42:41.338,-0.07430751526012805,-0.4195107751227205,-0.5675765180859714,-0.1629005762228926,0.009576068862930543,-0.01392114802311892,-0.3874053525541234,0.046068275406069004,0.1341594291294573,0.296644649384764,-0.1683060396237843,0.3480849283253215,0.3554551247479034,0.5589970311589683,0.2918188640540212,0.5106511204704164,0.1284189902400964,0.2316240285715001,0.04021143434252016,0.2866655041178875,815.1282051282053,811.5018315018315,825.2014652014653,812.7106227106227,735.3479853479854,0.013244999999999998,0.116882,1.003296,2.549591,-3.416901,-2.557068,1.0,1.0,1.0,1.0,1.0,65.0,
2020-05-06 22:42:41.338,-0.07430751526012805,-0.4195107751227205,-0.5675765180859714,-0.1629005762228926,0.009576068862930543,-0.01392114802311892,-0.3874053525541234,0.046068275406069004,0.1341594291294573,0.296644649384764,-0.1683060396237843,0.3480849283253215,0.3554551247479034,0.5589970311589683,0.2918188640540212,0.5106511204704164,0.1284189902400964,0.2316240285715001,0.04021143434252016,0.2866655041178875,807.0695970695972,817.5457875457877,809.8901098901099,819.1575091575091,749.047619047619,0.013244999999999998,0.116882,1.003296,2.549591,-3.416901,-2.557068,1.0,1.0,1.0,1.0,1.0,65.0,
2020-05-06 22:42:41.339,-0.07430751526012805,-0.4195107751227205,-0.5675765180859714,-0.1629005762228926,0.009576068862930543,-0.01392114802311892,-0.3874053525541234,0.046068275406069004,0.1341594291294573,0.296644649384764,-0.1683060396237843,0.3480849283253215,0.3554551247479034,0.5589970311589683,0.2918188640540212,0.5106511204704164,0.1284189902400964,0.2316240285715001,0.04021143434252016,0.2866655041178875,814.3223443223442,814.3223443223442,810.2930402930403,819.5604395604396,759.1208791208792,0.013244999999999998,0.116882,1.003296,2.549591,-3.416901,-2.557068,1.0,1.0,1.0,1.0,1.0,65.0,
2020-05-06 22:42:41.339,-0.07430751526012805,-0.4195107751227205,-0.5675765180859714,-0.1629005762228926,0.009576068862930543,-0.01392114802311892,-0.3874053525541234,0.046068275406069004,0.1341594291294573,0.296644649384764,-0.1683060396237843,0.3480849283253215,0.3554551247479034,0.5589970311589683,0.2918188640540212,0.5106511204704164,0.1284189902400964,0.2316240285715001,0.04021143434252016,0.2866655041178875,818.7545787545787,812.3076923076924,819.1575091575091,811.098901098901,630.989010989011,0.013244999999999998,0.116882,1.003296,2.549591,-3.416901,-2.557068,1.0,1.0,1.0,1.0,1.0,65.0,
2020-05-06 22:42:41.340,-0.07430751526012805,-0.4195107751227205,-0.5675765180859714,-0.1629005762228926,0.009576068862930543,-0.01392114802311892,-0.3874053525541234,0.046068275406069004,0.1341594291294573,0.296644649384764,-0.1683060396237843,0.3480849283253215,0.3554551247479034,0.5589970311589683,0.2918188640540212,0.5106511204704164,0.1284189902400964,0.2316240285715001,0.04021143434252016,0.2866655041178875,811.5018315018315,807.0695970695972,818.7545787545787,810.6959706959708,566.9230769230769,0.013244999999999998,0.116882,1.003296,2.549591,-3.416901,-2.557068,1.0,1.0,1.0,1.0,1.0,65.0,
2020-05-06 22:42:41.340,-0.07430751526012805,-0.4195107751227205,-0.5675765180859714,-0.1629005762228926,0.009576068862930543,-0.01392114802311892,-0.3874053525541234,0.046068275406069004,0.1341594291294573,0.296644649384764,-0.1683060396237843,0.3480849283253215,0.3554551247479034,0.5589970311589683,0.2918188640540212,0.5106511204704164,0.1284189902400964,0.2316240285715001,0.04021143434252016,0.2866655041178875,807.0695970695972,796.5934065934067,816.7399267399268,815.934065934066,574.981684981685,0.013244999999999998,0.116882,1.003296,2.549591,-3.416901,-2.557068,1.0,1.0,1.0,1.0,1.0,65.0,
2020-05-06 22:42:41.341,-0.07430751526012805,-0.4195107751227205,-0.5675765180859714,-0.1629005762228926,0.009576068862930543,-0.01392114802311892,-0.3874053525541234,0.046068275406069004,0.1341594291294573,0.296644649384764,-0.1683060396237843,0.3480849283253215,0.3554551247479034,0.5589970311589683,0.2918188640540212,0.5106511204704164,0.1284189902400964,0.2316240285715001,0.04021143434252016,0.2866655041178875,800.6227106227108,788.5347985347986,814.3223443223442,807.8754578754579,865.4945054945056,0.013244999999999998,0.116882,1.003296,2.549591,-3.416901,-2.557068,1.0,1.0,1.0,1.0,1.0,65.0,
2020-05-06 22:42:41.362,-0.07430751526012805,-0.4195107751227205,-0.5675765180859714,-0.1629005762228926,0.009576068862930543,-0.01392114802311892,-0.3874053525541234,0.046068275406069004,0.1341594291294573,0.296644649384764,-0.1683060396237843,0.3480849283253215,0.3554551247479034,0.5589970311589683,0.2918188640540212,0.5106511204704164,0.1284189902400964,0.2316240285715001,0.04021143434252016,0.2866655041178875,816.3369963369963,800.6227106227108,810.2930402930403,807.4725274725274,1099.1941391941389,0.014221000000000001,0.11523399999999999,1.003906,2.3851009999999997,-2.901001,-3.050537,1.0,1.0,1.0,1.0,1.0,65.0,
2020-05-06 22:42:41.362,-0.07430751526012805,-0.4195107751227205,-0.5675765180859714,-0.1629005762228926,0.009576068862930543,-0.01392114802311892,-0.3874053525541234,0.046068275406069004,0.1341594291294573,0.296644649384764,-0.1683060396237843,0.3480849283253215,0.3554551247479034,0.5589970311589683,0.2918188640540212,0.5106511204704164,0.1284189902400964,0.2316240285715001,0.04021143434252016,0.2866655041178875,823.992673992674,807.4725274725274,815.1282051282053,805.8608058608058,766.7765567765567,0.014221000000000001,0.11523399999999999,1.003906,2.3851009999999997,-2.901001,-3.050537,1.0,1.0,1.0,1.0,1.0,65.0,
2020-05-06 22:42:41.363,-0.07430751526012805,-0.4195107751227205,-0.5675765180859714,-0.1629005762228926,0.009576068862930543,-0.01392114802311892,-0.3874053525541234,0.046068275406069004,0.1341594291294573,0.296644649384764,-0.1683060396237843,0.3480849283253215,0.3554551247479034,0.5589970311589683,0.2918188640540212,0.5106511204704164,0.1284189902400964,0.2316240285715001,0.04021143434252016,0.2866655041178875,803.040293040293,792.9670329670329,816.3369963369963,806.6666666666667,594.3223443223443,0.014221000000000001,0.11523399999999999,1.003906,2.3851009999999997,-2.901001,-3.050537,1.0,1.0,1.0,1.0,1.0,65.0,
2020-05-06 22:42:41.363,-0.07430751526012805,-0.4195107751227205,-0.5675765180859714,-0.1629005762228926,0.009576068862930543,-0.01392114802311892,-0.3874053525541234,0.046068275406069004,0.1341594291294573,0.296644649384764,-0.1683060396237843,0.3480849283253215,0.3554551247479034,0.5589970311589683,0.2918188640540212,0.5106511204704164,0.1284189902400964,0.2316240285715001,0.04021143434252016,0.2866655041178875,802.6373626373628,796.5934065934067,814.3223443223442,824.7985347985347,591.9047619047619,0.014221000000000001,0.11523399999999999,1.003906,2.3851009999999997,-2.901001,-3.050537,1.0,1.0,1.0,1.0,1.0,65.0,
2020-05-06 22:42:41.364,-0.07430751526012805,-0.4195107751227205,-0.5675765180859714,-0.1629005762228926,0.009576068862930543,-0.01392114802311892,-0.3874053525541234,0.046068275406069004,0.1341594291294573,0.296644649384764,-0.1683060396237843,0.3480849283253215,0.3554551247479034,0.5589970311589683,0.2918188640540212,0.5106511204704164,0.1284189902400964,0.2316240285715001,0.04021143434252016,0.2866655041178875,821.1721611721613,803.8461538461539,819.1575091575091,828.4249084249085,666.8498168498169,0.014221000000000001,0.11523399999999999,1.003906,2.3851009999999997,-2.901001,-3.050537,1.0,1.0,1.0,1.0,1.0,65.0,
2020-05-06 22:42:41.364,-0.07430751526012805,-0.4195107751227205,-0.5675765180859714,-0.1629005762228926,0.009576068862930543,-0.01392114802311892,-0.3874053525541234,0.046068275406069004,0.1341594291294573,0.296644649384764,-0.1683060396237843,0.3480849283253215,0.3554551247479034,0.5589970311589683,0.2918188640540212,0.5106511204704164,0.1284189902400964,0.2316240285715001,0.04021143434252016,0.2866655041178875,820.7692307692308,795.7875457875458,817.1428571428571,813.1135531135533,828.4249084249085,0.014221000000000001,0.11523399999999999,1.003906,2.3851009999999997,-2.901001,-3.050537,1.0,1.0,1.0,1.0,1.0,65.0,
2020-05-06 22:42:41.364,-0.07430751526012805,-0.4195107751227205,-0.5675765180859714,-0.1629005762228926,0.009576068862930543,-0.01392114802311892,-0.3874053525541234,0.046068275406069004,0.1341594291294573,0.296644649384764,-0.1683060396237843,0.3480849283253215,0.3554551247479034,0.5589970311589683,0.2918188640540212,0.5106511204704164,0.1284189902400964,0.2316240285715001,0.04021143434252016,0.2866655041178875,798.6080586080586,799.8168498168499,809.8901098901099,807.4725274725274,966.6300366300368,0.014221000000000001,0.11523399999999999,1.003906,2.3851009999999997,-2.901001,-3.050537,1.0,1.0,1.0,1.0,1.0,65.0,
2020-05-06 22:42:41.365,-0.07430751526012805,-0.4195107751227205,-0.5675765180859714,-0.1629005762228926,0.009576068862930543,-0.01392114802311892,-0.3874053525541234,0.046068275406069004,0.1341594291294573,0.296644649384764,-0.1683060396237843,0.3480849283253215,0.3554551247479034,0.5589970311589683,0.2918188640540212,0.5106511204704164,0.1284189902400964,0.2316240285715001,0.04021143434252016,0.2866655041178875,794.5787545787546,804.6520146520148,809.8901098901099,811.5018315018315,998.4615384615383,0.014221000000000001,0.11523399999999999,1.003906,2.3851009999999997,-2.901001,-3.050537,1.0,1.0,1.0,1.0,1.0,65.0,
2020-05-06 22:42:41.365,-0.07430751526012805,-0.4195107751227205,-0.5675765180859714,-0.1629005762228926,0.009576068862930543,-0.01392114802311892,-0.3874053525541234,0.046068275406069004,0.1341594291294573,0.296644649384764,-0.1683060396237843,0.3480849283253215,0.3554551247479034,0.5589970311589683,0.2918188640540212,0.5106511204704164,0.1284189902400964,0.2316240285715001,0.04021143434252016,0.2866655041178875,806.2637362637363,801.4285714285713,808.2783882783882,812.7106227106227,846.5567765567764,0.014221000000000001,0.11523399999999999,1.003906,2.3851009999999997,-2.901001,-3.050537,1.0,1.0,1.0,1.0,1.0,65.0,
2020-05-06 22:42:41.366,-0.047812906536703066,-0.3770019620899525,-0.5329234911381974,-0.1459006498214817,-0.01260195606648256,-0.01292045363961055,-0.3897633088277687,0.04034507784895524,0.1409290491068421,0.2823188441206944,-0.1364733134543301,0.38022508610667793,0.3625273356350182,0.557427463911945,0.2918935236544671,0.5143777421570794,0.1302606858449739,0.2148465918738183,0.032613775330452614,0.2956870340458966,815.1282051282053,805.4578754578755,808.2783882783882,809.8901098901099,728.4981684981685,0.014221000000000001,0.11523399999999999,1.003906,2.3851009999999997,-2.901001,-3.050537,1.0,1.0,1.0,1.0,1.0,65.0,
2020-05-06 22:42:41.368,-0.047812906536703066,-0.3770019620899525,-0.5329234911381974,-0.1459006498214817,-0.01260195606648256,-0.01292045363961055,-0.3897633088277687,0.04034507784895524,0.1409290491068421,0.2823188441206944,-0.1364733134543301,0.38022508610667793,0.3625273356350182,0.557427463911945,0.2918935236544671,0.5143777421570794,0.1302606858449739,0.2148465918738183,0.032613775330452614,0.2956870340458966,814.7252747252749,815.934065934066,810.2930402930403,811.098901098901,738.5714285714287,0.014221000000000001,0.11523399999999999,1.003906,2.3851009999999997,-2.901001,-3.050537,1.0,1.0,1.0,1.0,1.0,65.0,
2020-05-06 22:42:41.368,-0.047812906536703066,-0.3770019620899525,-0.5329234911381974,-0.1459006498214817,-0.01260195606648256,-0.01292045363961055,-0.3897633088277687,0.04034507784895524,0.1409290491068421,0.2823188441206944,-0.1364733134543301,0.38022508610667793,0.3625273356350182,0.557427463911945,0.2918935236544671,0.5143777421570794,0.1302606858449739,0.2148465918738183,0.032613775330452614,0.2956870340458966,801.4285714285713,818.3516483516484,807.8754578754579,814.7252747252749,816.3369963369963,0.014221000000000001,0.11523399999999999,1.003906,2.3851009999999997,-2.901001,-3.050537,1.0,1.0,1.0,1.0,1.0,65.0,
2020-05-06 22:42:41.411,-0.047812906536703066,-0.3770019620899525,-0.5329234911381974,-0.1459006498214817,-0.01260195606648256,-0.01292045363961055,-0.3897633088277687,0.04034507784895524,0.1409290491068421,0.2823188441206944,-0.1364733134543301,0.38022508610667793,0.3625273356350182,0.557427463911945,0.2918935236544671,0.5143777421570794,0.1302606858449739,0.2148465918738183,0.032613775330452614,0.2956870340458966,802.6373626373628,811.098901098901,805.8608058608058,808.6813186813188,822.7838827838829,0.017883,0.118164,1.006226,2.878571,-3.102875,-2.706604,1.0,1.0,1.0,1.0,1.0,65.0,
2020-05-06 22:42:41.412,-0.047812906536703066,-0.3770019620899525,-0.5329234911381974,-0.1459006498214817,-0.01260195606648256,-0.01292045363961055,-0.3897633088277687,0.04034507784895524,0.1409290491068421,0.2823188441206944,-0.1364733134543301,0.38022508610667793,0.3625273356350182,0.557427463911945,0.2918935236544671,0.5143777421570794,0.1302606858449739,0.2148465918738183,0.032613775330452614,0.2956870340458966,813.1135531135533,807.8754578754579,806.2637362637363,796.9963369963369,713.992673992674,0.017883,0.118164,1.006226,2.878571,-3.102875,-2.706604,1.0,1.0,1.0,1.0,1.0,65.0,
2020-05-06 22:42:41.412,-0.047812906536703066,-0.3770019620899525,-0.5329234911381974,-0.1459006498214817,-0.01260195606648256,-0.01292045363961055,-0.3897633088277687,0.04034507784895524,0.1409290491068421,0.2823188441206944,-0.1364733134543301,0.38022508610667793,0.3625273356350182,0.557427463911945,0.2918935236544671,0.5143777421570794,0.1302606858449739,0.2148465918738183,0.032613775330452614,0.2956870340458966,801.4285714285713,800.6227106227108,796.5934065934067,788.9377289377289,810.6959706959708,0.017883,0.118164,1.006226,2.878571,-3.102875,-2.706604,1.0,1.0,1.0,1.0,1.0,65.0,
2020-05-06 22:42:41.412,-0.047812906536703066,-0.3770019620899525,-0.5329234911381974,-0.1459006498214817,-0.01260195606648256,-0.01292045363961055,-0.3897633088277687,0.04034507784895524,0.1409290491068421,0.2823188441206944,-0.1364733134543301,0.38022508610667793,0.3625273356350182,0.557427463911945,0.2918935236544671,0.5143777421570794,0.1302606858449739,0.2148465918738183,0.032613775330452614,0.2956870340458966,790.952380952381,799.0109890109891,791.3553113553114,792.1611721611722,1127.399267399268,0.017883,0.118164,1.006226,2.878571,-3.102875,-2.706604,1.0,1.0,1.0,1.0,1.0,65.0,
2020-05-06 22:42:41.413,-0.047812906536703066,-0.3770019620899525,-0.5329234911381974,-0.1459006498214817,-0.01260195606648256,-0.01292045363961055,-0.3897633088277687,0.04034507784895524,0.1409290491068421,0.2823188441206944,-0.1364733134543301,0.38022508610667793,0.3625273356350182,0.557427463911945,0.2918935236544671,0.5143777421570794,0.1302606858449739,0.2148465918738183,0.032613775330452614,0.2956870340458966,808.6813186813188,814.7252747252749,801.8315018315019,794.981684981685,994.4322344322344,0.017883,0.118164,1.006226,2.878571,-3.102875,-2.706604,1.0,1.0,1.0,1.0,1.0,65.0,
2020-05-06 22:42:41.413,-0.047812906536703066,-0.3770019620899525,-0.5329234911381974,-0.1459006498214817,-0.01260195606648256,-0.01292045363961055,-0.3897633088277687,0.04034507784895524,0.1409290491068421,0.2823188441206944,-0.1364733134543301,0.38022508610667793,0.3625273356350182,0.557427463911945,0.2918935236544671,0.5143777421570794,0.1302606858449739,0.2148465918738183,0.032613775330452614,0.2956870340458966,824.3956043956044,805.8608058608058,806.6666666666667,790.1465201465203,784.1025641025641,0.017883,0.118164,1.006226,2.878571,-3.102875,-2.706604,1.0,1.0,1.0,1.0,1.0,65.0,
2020-05-06 22:42:41.414,-0.047812906536703066,-0.3770019620899525,-0.5329234911381974,-0.1459006498214817,-0.01260195606648256,-0.01292045363961055,-0.3897633088277687,0.04034507784895524,0.1409290491068421,0.2823188441206944,-0.1364733134543301,0.38022508610667793,0.3625273356350182,0.557427463911945,0.2918935236544671,0.5143777421570794,0.1302606858449739,0.2148465918738183,0.032613775330452614,0.2956870340458966,823.1868131868132,794.5787545787546,810.2930402930403,789.7435897435898,821.1721611721613,0.017883,0.118164,1.006226,2.878571,-3.102875,-2.706604,1.0,1.0,1.0,1.0,1.0,65.0,
2020-05-06 22:42:41.414,-0.047812906536703066,-0.3770019620899525,-0.5329234911381974,-0.1459006498214817,-0.01260195606648256,-0.01292045363961055,-0.3897633088277687,0.04034507784895524,0.1409290491068421,0.2823188441206944,-0.1364733134543301,0.38022508610667793,0.3625273356350182,0.557427463911945,0.2918935236544671,0.5143777421570794,0.1302606858449739,0.2148465918738183,0.032613775330452614,0.2956870340458966,807.8754578754579,795.3846153846154,811.9047619047618,796.5934065934067,739.7802197802197,0.017883,0.118164,1.006226,2.878571,-3.102875,-2.706604,1.0,1.0,1.0,1.0,1.0,65.0,
2020-05-06 22:42:41.414,-0.047812906536703066,-0.3770019620899525,-0.5329234911381974,-0.1459006498214817,-0.01260195606648256,-0.01292045363961055,-0.3897633088277687,0.04034507784895524,0.1409290491068421,0.2823188441206944,-0.1364733134543301,0.38022508610667793,0.3625273356350182,0.557427463911945,0.2918935236544671,0.5143777421570794,0.1302606858449739,0.2148465918738183,0.032613775330452614,0.2956870340458966,804.2490842490844,799.4139194139194,809.4871794871796,805.8608058608058,708.3516483516484,0.017883,0.118164,1.006226,2.878571,-3.102875,-2.706604,1.0,1.0,1.0,1.0,1.0,65.0,
2020-05-06 22:42:41.415,-0.047812906536703066,-0.3770019620899525,-0.5329234911381974,-0.1459006498214817,-0.01260195606648256,-0.01292045363961055,-0.3897633088277687,0.04034507784895524,0.1409290491068421,0.2823188441206944,-0.1364733134543301,0.38022508610667793,0.3625273356350182,0.557427463911945,0.2918935236544671,0.5143777421570794,0.1302606858449739,0.2148465918738183,0.032613775330452614,0.2956870340458966,817.1428571428571,805.8608058608058,805.054945054945,808.2783882783882,722.4542124542123,0.017883,0.118164,1.006226,2.878571,-3.102875,-2.706604,1.0,1.0,1.0,1.0,1.0,65.0,
2020-05-06 22:42:41.415,-0.047812906536703066,-0.3770019620899525,-0.5329234911381974,-0.1459006498214817,-0.01260195606648256,-0.01292045363961055,-0.3897633088277687,0.04034507784895524,0.1409290491068421,0.2823188441206944,-0.1364733134543301,0.38022508610667793,0.3625273356350182,0.557427463911945,0.2918935236544671,0.5143777421570794,0.1302606858449739,0.2148465918738183,0.032613775330452614,0.2956870340458966,808.6813186813188,798.2051282051282,799.4139194139194,803.4432234432236,899.3406593406594,0.017883,0.118164,1.006226,2.878571,-3.102875,-2.706604,1.0,1.0,1.0,1.0,1.0,65.0,
2020-05-06 22:42:41.416,-0.047812906536703066,-0.3770019620899525,-0.5329234911381974,-0.1459006498214817,-0.01260195606648256,-0.01292045363961055,-0.3897633088277687,0.04034507784895524,0.1409290491068421,0.2823188441206944,-0.1364733134543301,0.38022508610667793,0.3625273356350182,0.557427463911945,0.2918935236544671,0.5143777421570794,0.1302606858449739,0.2148465918738183,0.032613775330452614,0.2956870340458966,792.5641025641024,798.2051282051282,804.2490842490844,801.8315018315019,934.7985347985347,0.017883,0.118164,1.006226,2.878571,-3.102875,-2.706604,1.0,1.0,1.0,1.0,1.0,65.0,
2020-05-06 22:42:41.480,-0.047812906536703066,-0.3770019620899525,-0.5329234911381974,-0.1459006498214817,-0.01260195606648256,-0.01292045363961055,-0.3897633088277687,0.04034507784895524,0.1409290491068421,0.2823188441206944,-0.1364733134543301,0.38022508610667793,0.3625273356350182,0.557427463911945,0.2918935236544671,0.5143777421570794,0.1302606858449739,0.2148465918738183,0.032613775330452614,0.2956870340458966,799.4139194139194,805.4578754578755,813.1135531135533,808.2783882783882,732.5274725274727,0.017883,0.118164,1.006226,2.878571,-3.102875,-2.706604,1.0,1.0,1.0,1.0,1.0,65.0,
2020-05-06 22:42:41.482,-0.047812906536703066,-0.3770019620899525,-0.5329234911381974,-0.1459006498214817,-0.01260195606648256,-0.01292045363961055,-0.3897633088277687,0.04034507784895524,0.1409290491068421,0.2823188441206944,-0.1364733134543301,0.38022508610667793,0.3625273356350182,0.557427463911945,0.2918935236544671,0.5143777421570794,0.1302606858449739,0.2148465918738183,0.032613775330452614,0.2956870340458966,806.2637362637363,803.4432234432236,814.7252747252749,807.0695970695972,731.7216117216118,0.017883,0.118164,1.006226,2.878571,-3.102875,-2.706604,1.0,1.0,1.0,1.0,1.0,65.0,
2020-05-06 22:42:41.484,-0.047812906536703066,-0.3770019620899525,-0.5329234911381974,-0.1459006498214817,-0.01260195606648256,-0.01292045363961055,-0.3897633088277687,0.04034507784895524,0.1409290491068421,0.2823188441206944,-0.1364733134543301,0.38022508610667793,0.3625273356350182,0.557427463911945,0.2918935236544671,0.5143777421570794,0.1302606858449739,0.2148465918738183,0.032613775330452614,0.2956870340458966,809.8901098901099,799.0109890109891,812.3076923076924,809.0842490842491,729.7069597069597,0.017883,0.118164,1.006226,2.878571,-3.102875,-2.706604,1.0,1.0,1.0,1.0,1.0,65.0,
2020-05-06 22:42:41.486,-0.047812906536703066,-0.3770019620899525,-0.5329234911381974,-0.1459006498214817,-0.01260195606648256,-0.01292045363961055,-0.3897633088277687,0.04034507784895524,0.1409290491068421,0.2823188441206944,-0.1364733134543301,0.38022508610667793,0.3625273356350182,0.557427463911945,0.2918935236544671,0.5143777421570794,0.1302606858449739,0.2148465918738183,0.032613775330452614,0.2956870340458966,803.040293040293,793.7728937728937,803.8461538461539,805.8608058608058,724.4688644688645,0.017883,0.118164,1.006226,2.878571,-3.102875,-2.706604,1.0,1.0,1.0,1.0,1.0,65.0,
2020-05-06 22:42:41.487,-0.047812906536703066,-0.3770019620899525,-0.5329234911381974,-0.1459006498214817,-0.01260195606648256,-0.01292045363961055,-0.3897633088277687,0.04034507784895524,0.1409290491068421,0.2823188441206944,-0.1364733134543301,0.38022508610667793,0.3625273356350182,0.557427463911945,0.2918935236544671,0.5143777421570794,0.1302606858449739,0.2148465918738183,0.032613775330452614,0.2956870340458966,799.4139194139194,794.1758241758242,799.0109890109891,807.0695970695972,777.2527472527472,0.017883,0.118164,1.006226,2.878571,-3.102875,-2.706604,1.0,1.0,1.0,1.0,1.0,65.0,
2020-05-06 22:42:41.490,-0.047812906536703066,-0.3770019620899525,-0.5329234911381974,-0.1459006498214817,-0.01260195606648256,-0.01292045363961055,-0.3897633088277687,0.04034507784895524,0.1409290491068421,0.2823188441206944,-0.1364733134543301,0.38022508610667793,0.3625273356350182,0.557427463911945,0.2918935236544671,0.5143777421570794,0.1302606858449739,0.2148465918738183,0.032613775330452614,0.2956870340458966,815.5311355311355,797.8021978021977,799.8168498168499,811.5018315018315,842.1245421245421,0.017883,0.118164,1.006226,2.878571,-3.102875,-2.706604,1.0,1.0,1.0,1.0,1.0,65.0,
2020-05-06 22:42:41.492,-0.047812906536703066,-0.3770019620899525,-0.5329234911381974,-0.1459006498214817,-0.01260195606648256,-0.01292045363961055,-0.3897633088277687,0.04034507784895524,0.1409290491068421,0.2823188441206944,-0.1364733134543301,0.38022508610667793,0.3625273356350182,0.557427463911945,0.2918935236544671,0.5143777421570794,0.1302606858449739,0.2148465918738183,0.032613775330452614,0.2956870340458966,823.992673992674,798.2051282051282,807.0695970695972,809.4871794871796,1051.648351648352,0.017883,0.118164,1.006226,2.878571,-3.102875,-2.706604,1.0,1.0,1.0,1.0,1.0,65.0,
2020-05-06 22:42:41.493,-0.047812906536703066,-0.3770019620899525,-0.5329234911381974,-0.1459006498214817,-0.01260195606648256,-0.01292045363961055,-0.3897633088277687,0.04034507784895524,0.1409290491068421,0.2823188441206944,-0.1364733134543301,0.38022508610667793,0.3625273356350182,0.557427463911945,0.2918935236544671,0.5143777421570794,0.1302606858449739,0.2148465918738183,0.032613775330452614,0.2956870340458966,815.1282051282053,800.6227106227108,809.0842490842491,809.0842490842491,969.4505494505496,0.017883,0.118164,1.006226,2.878571,-3.102875,-2.706604,1.0,1.0,1.0,1.0,1.0,65.0,
2020-05-06 22:42:41.495,-0.047812906536703066,-0.3770019620899525,-0.5329234911381974,-0.1459006498214817,-0.01260195606648256,-0.01292045363961055,-0.3897633088277687,0.04034507784895524,0.1409290491068421,0.2823188441206944,-0.1364733134543301,0.38022508610667793,0.3625273356350182,0.557427463911945,0.2918935236544671,0.5143777421570794,0.1302606858449739,0.2148465918738183,0.032613775330452614,0.2956870340458966,805.054945054945,809.8901098901099,806.6666666666667,804.6520146520148,787.3260073260074,0.017883,0.118164,1.006226,2.878571,-3.102875,-2.706604,1.0,1.0,1.0,1.0,1.0,65.0,
2020-05-06 22:42:41.496,-0.047812906536703066,-0.3770019620899525,-0.5329234911381974,-0.1459006498214817,-0.01260195606648256,-0.01292045363961055,-0.3897633088277687,0.04034507784895524,0.1409290491068421,0.2823188441206944,-0.1364733134543301,0.38022508610667793,0.3625273356350182,0.557427463911945,0.2918935236544671,0.5143777421570794,0.1302606858449739,0.2148465918738183,0.032613775330452614,0.2956870340458966,813.1135531135533,811.098901098901,813.1135531135533,809.0842490842491,804.2490842490844,0.017883,0.118164,1.006226,2.878571,-3.102875,-2.706604,1.0,1.0,1.0,1.0,1.0,65.0,
2020-05-06 22:42:41.497,-0.047812906536703066,-0.3770019620899525,-0.5329234911381974,-0.1459006498214817,-0.01260195606648256,-0.01292045363961055,-0.3897633088277687,0.04034507784895524,0.1409290491068421,0.2823188441206944,-0.1364733134543301,0.38022508610667793,0.3625273356350182,0.557427463911945,0.2918935236544671,0.5143777421570794,0.1302606858449739,0.2148465918738183,0.032613775330452614,0.2956870340458966,819.5604395604396,804.2490842490844,812.3076923076924,807.4725274725274,724.4688644688645,0.017883,0.118164,1.006226,2.878571,-3.102875,-2.706604,1.0,1.0,1.0,1.0,1.0,65.0,
2020-05-06 22:42:41.498,-0.031774016349659935,-0.3314262096799429,-0.4851783590741841,-0.1279049732521496,-0.01980005995572447,-0.02215286370984312,-0.3852299895251737,0.045530889262156864,0.1859529265102469,0.2859944991410568,-0.08464069651730458,0.394987448545108,0.3746010374135701,0.5641466828982691,0.2858326219871765,0.5217188797186119,0.1274586414731733,0.21039998677354102,0.02103652517116022,0.2945747316284647,814.3223443223442,803.4432234432236,807.4725274725274,803.040293040293,699.8901098901099,0.017883,0.118164,1.006226,2.878571,-3.102875,-2.706604,1.0,1.0,1.0,1.0,1.0,65.0,
2020-05-06 22:42:41.526,-0.031774016349659935,-0.3314262096799429,-0.4851783590741841,-0.1279049732521496,-0.01980005995572447,-0.02215286370984312,-0.3852299895251737,0.045530889262156864,0.1859529265102469,0.2859944991410568,-0.08464069651730458,0.394987448545108,0.3746010374135701,0.5641466828982691,0.2858326219871765,0.5217188797186119,0.1274586414731733,0.21039998677354102,0.02103652517116022,0.2945747316284647,807.8754578754579,803.4432234432236,811.098901098901,814.3223443223442,673.6996336996338,0.013672,0.117249,0.997559,2.287903,-2.4823,-2.527161,1.0,1.0,1.0,1.0,1.0,65.0,
2020-05-06 22:42:41.528,-0.031774016349659935,-0.3314262096799429,-0.4851783590741841,-0.1279049732521496,-0.01980005995572447,-0.02215286370984312,-0.3852299895251737,0.045530889262156864,0.1859529265102469,0.2859944991410568,-0.08464069651730458,0.394987448545108,0.3746010374135701,0.5641466828982691,0.2858326219871765,0.5217188797186119,0.1274586414731733,0.21039998677354102,0.02103652517116022,0.2945747316284647,806.6666666666667,803.8461538461539,815.934065934066,821.978021978022,735.7509157509156,0.013672,0.117249,0.997559,2.287903,-2.4823,-2.527161,1.0,1.0,1.0,1.0,1.0,65.0,
2020-05-06 22:42:41.529,-0.031774016349659935,-0.3314262096799429,-0.4851783590741841,-0.1279049732521496,-0.01980005995572447,-0.02215286370984312,-0.3852299895251737,0.045530889262156864,0.1859529265102469,0.2859944991410568,-0.08464069651730458,0.394987448545108,0.3746010374135701,0.5641466828982691,0.2858326219871765,0.5217188797186119,0.1274586414731733,0.21039998677354102,0.02103652517116022,0.2945747316284647,815.1282051282053,800.2197802197803,813.1135531135533,813.9194139194141,873.5531135531136,0.013672,0.117249,0.997559,2.287903,-2.4823,-2.527161,1.0,1.0,1.0,1.0,1.0,65.0,
2020-05-06 22:42:41.529,-0.031774016349659935,-0.3314262096799429,-0.4851783590741841,-0.1279049732521496,-0.01980005995572447,-0.02215286370984312,-0.3852299895251737,0.045530889262156864,0.1859529265102469,0.2859944991410568,-0.08464069651730458,0.394987448545108,0.3746010374135701,0.5641466828982691,0.2858326219871765,0.5217188797186119,0.1274586414731733,0.21039998677354102,0.02103652517116022,0.2945747316284647,821.1721611721613,796.5934065934067,811.098901098901,807.4725274725274,867.1062271062273,0.013672,0.117249,0.997559,2.287903,-2.4823,-2.527161,1.0,1.0,1.0,1.0,1.0,65.0,
2020-05-06 22:42:41.530,-0.031774016349659935,-0.3314262096799429,-0.4851783590741841,-0.1279049732521496,-0.01980005995572447,-0.02215286370984312,-0.3852299895251737,0.045530889262156864,0.1859529265102469,0.2859944991410568,-0.08464069651730458,0.394987448545108,0.3746010374135701,0.5641466828982691,0.2858326219871765,0.5217188797186119,0.1274586414731733,0.21039998677354102,0.02103652517116022,0.2945747316284647,814.7252747252749,802.2344322344322,809.8901098901099,809.4871794871796,863.4798534798535,0.013672,0.117249,0.997559,2.287903,-2.4823,-2.527161,1.0,1.0,1.0,1.0,1.0,65.0,
2020-05-06 22:42:41.531,-0.031774016349659935,-0.3314262096799429,-0.4851783590741841,-0.1279049732521496,-0.01980005995572447,-0.02215286370984312,-0.3852299895251737,0.045530889262156864,0.1859529265102469,0.2859944991410568,-0.08464069651730458,0.394987448545108,0.3746010374135701,0.5641466828982691,0.2858326219871765,0.5217188797186119,0.1274586414731733,0.21039998677354102,0.02103652517116022,0.2945747316284647,802.6373626373628,796.9963369963369,807.0695970695972,811.9047619047618,902.1611721611722,0.013672,0.117249,0.997559,2.287903,-2.4823,-2.527161,1.0,1.0,1.0,1.0,1.0,65.0,
2020-05-06 22:42:41.532,-0.031774016349659935,-0.3314262096799429,-0.4851783590741841,-0.1279049732521496,-0.01980005995572447,-0.02215286370984312,-0.3852299895251737,0.045530889262156864,0.1859529265102469,0.2859944991410568,-0.08464069651730458,0.394987448545108,0.3746010374135701,0.5641466828982691,0.2858326219871765,0.5217188797186119,0.1274586414731733,0.21039998677354102,0.02103652517116022,0.2945747316284647,805.8608058608058,792.9670329670329,807.4725274725274,808.2783882783882,877.9853479853481,0.013672,0.117249,0.997559,2.287903,-2.4823,-2.527161,1.0,1.0,1.0,1.0,1.0,65.0,
2020-05-06 22:42:41.532,-0.031774016349659935,-0.3314262096799429,-0.4851783590741841,-0.1279049732521496,-0.01980005995572447,-0.02215286370984312,-0.3852299895251737,0.045530889262156864,0.1859529265102469,0.2859944991410568,-0.08464069651730458,0.394987448545108,0.3746010374135701,0.5641466828982691,0.2858326219871765,0.5217188797186119,0.1274586414731733,0.21039998677354102,0.02103652517116022,0.2945747316284647,813.5164835164835,806.2637362637363,808.6813186813188,805.4578754578755,809.4871794871796,0.013672,0.117249,0.997559,2.287903,-2.4823,-2.527161,1.0,1.0,1.0,1.0,1.0,65.0,
2020-05-06 22:42:41.533,-0.031774016349659935,-0.3314262096799429,-0.4851783590741841,-0.1279049732521496,-0.01980005995572447,-0.02215286370984312,-0.3852299895251737,0.045530889262156864,0.1859529265102469,0.2859944991410568,-0.08464069651730458,0.394987448545108,0.3746010374135701,0.5641466828982691,0.2858326219871765,0.5217188797186119,0.1274586414731733,0.21039998677354102,0.02103652517116022,0.2945747316284647,808.6813186813188,814.7252747252749,806.2637362637363,805.8608058608058,691.025641025641,0.013672,0.117249,0.997559,2.287903,-2.4823,-2.527161,1.0,1.0,1.0,1.0,1.0,65.0,
2020-05-06 22:42:41.534,-0.031774016349659935,-0.3314262096799429,-0.4851783590741841,-0.1279049732521496,-0.01980005995572447,-0.02215286370984312,-0.3852299895251737,0.045530889262156864,0.1859529265102469,0.2859944991410568,-0.08464069651730458,0.394987448545108,0.3746010374135701,0.5641466828982691,0.2858326219871765,0.5217188797186119,0.1274586414731733,0.21039998677354102,0.02103652517116022,0.2945747316284647,796.9963369963369,807.8754578754579,805.4578754578755,798.2051282051282,878.3882783882783,0.013672,0.117249,0.997559,2.287903,-2.4823,-2.527161,1.0,1.0,1.0,1.0,1.0,65.0,
2020-05-06 22:42:41.534,-0.031774016349659935,-0.3314262096799429,-0.4851783590741841,-0.1279049732521496,-0.01980005995572447,-0.02215286370984312,-0.3852299895251737,0.045530889262156864,0.1859529265102469,0.2859944991410568,-0.08464069651730458,0.394987448545108,0.3746010374135701,0.5641466828982691,0.2858326219871765,0.5217188797186119,0.1274586414731733,0.21039998677354102,0.02103652517116022,0.2945747316284647,806.6666666666667,805.054945054945,807.4725274725274,803.040293040293,995.6410256410257,0.013672,0.117249,0.997559,2.287903,-2.4823,-2.527161,1.0,1.0,1.0,1.0,1.0,65.0,
2020-05-06 22:42:41.534,-0.031774016349659935,-0.3314262096799429,-0.4851783590741841,-0.1279049732521496,-0.01980005995572447,-0.02215286370984312,-0.3852299895251737,0.045530889262156864,0.1859529265102469,0.2859944991410568,-0.08464069651730458,0.394987448545108,0.3746010374135701,0.5641466828982691,0.2858326219871765,0.5217188797186119,0.1274586414731733,0.21039998677354102,0.02103652517116022,0.2945747316284647,822.7838827838829,817.5457875457877,812.7106227106227,804.2490842490844,736.1538461538463,0.013672,0.117249,0.997559,2.287903,-2.4823,-2.527161,1.0,1.0,1.0,1.0,1.0,65.0,
2020-05-06 22:42:41.556,-0.031774016349659935,-0.3314262096799429,-0.4851783590741841,-0.1279049732521496,-0.01980005995572447,-0.02215286370984312,-0.3852299895251737,0.045530889262156864,0.1859529265102469,0.2859944991410568,-0.08464069651730458,0.394987448545108,0.3746010374135701,0.5641466828982691,0.2858326219871765,0.5217188797186119,0.1274586414731733,0.21039998677354102,0.02103652517116022,0.2945747316284647,811.9047619047618,821.5750915750915,817.1428571428571,796.9963369963369,703.9194139194141,0.012816999999999999,0.11492899999999999,1.000732,2.213135,-2.6094060000000003,-3.192596,1.0,1.0,1.0,1.0,1.0,65.0,
2020-05-06 22:42:41.557,-0.031774016349659935,-0.3314262096799429,-0.4851783590741841,-0.1279049732521496,-0.01980005995572447,-0.02215286370984312,-0.3852299895251737,0.045530889262156864,0.1859529265102469,0.2859944991410568,-0.08464069651730458,0.394987448545108,0.3746010374135701,0.5641466828982691,0.2858326219871765,0.5217188797186119,0.1274586414731733,0.21039998677354102,0.02103652517116022,0.2945747316284647,800.6227106227108,812.7106227106227,819.96336996337,805.4578754578755,701.9047619047618,0.012816999999999999,0.11492899999999999,1.000732,2.213135,-2.6094060000000003,-3.192596,1.0,1.0,1.0,1.0,1.0,65.0,
2020-05-06 22:42:41.557,-0.031774016349659935,-0.3314262096799429,-0.4851783590741841,-0.1279049732521496,-0.01980005995572447,-0.02215286370984312,-0.3852299895251737,0.045530889262156864,0.1859529265102469,0.2859944991410568,-0.08464069651730458,0.394987448545108,0.3746010374135701,0.5641466828982691,0.2858326219871765,0.5217188797186119,0.1274586414731733,0.21039998677354102,0.02103652517116022,0.2945747316284647,796.9963369963369,810.6959706959708,818.7545787545787,806.6666666666667,694.6520146520148,0.012816999999999999,0.11492899999999999,1.000732,2.213135,-2.6094060000000003,-3.192596,1.0,1.0,1.0,1.0,1.0,65.0,
2020-05-06 22:42:41.558,-0.031774016349659935,-0.3314262096799429,-0.4851783590741841,-0.1279049732521496,-0.01980005995572447,-0.02215286370984312,-0.3852299895251737,0.045530889262156864,0.1859529265102469,0.2859944991410568,-0.08464069651730458,0.394987448545108,0.3746010374135701,0.5641466828982691,0.2858326219871765,0.5217188797186119,0.1274586414731733,0.21039998677354102,0.02103652517116022,0.2945747316284647,799.0109890109891,806.2637362637363,815.934065934066,795.3846153846154,745.8241758241759,0.012816999999999999,0.11492899999999999,1.000732,2.213135,-2.6094060000000003,-3.192596,1.0,1.0,1.0,1.0,1.0,65.0,
2020-05-06 22:42:41.558,-0.031774016349659935,-0.3314262096799429,-0.4851783590741841,-0.1279049732521496,-0.01980005995572447,-0.02215286370984312,-0.3852299895251737,0.045530889262156864,0.1859529265102469,0.2859944991410568,-0.08464069651730458,0.394987448545108,0.3746010374135701,0.5641466828982691,0.2858326219871765,0.5217188797186119,0.1274586414731733,0.21039998677354102,0.02103652517116022,0.2945747316284647,796.1904761904763,801.4285714285713,812.3076923076924,790.5494505494507,735.3479853479854,0.012816999999999999,0.11492899999999999,1.000732,2.213135,-2.6094060000000003,-3.192596,1.0,1.0,1.0,1.0,1.0,65.0,
